XYDATA
TITLE: XYDATA  Data from POLARIS at ISIS on CeCuAl3
! File saved from TOT-FIT
! File name: cecual
! Scattering variable: TOF
!  Time-of-flight     Intensity
     5697.2632    21556.0000      415.0000    21304.5332
     5700.1108    21655.0000      416.0000    21463.8398
     5702.9590    22146.0000      421.0000    21775.1953
     5705.8081    22629.0000      426.0000    22382.5957
     5708.6558    23600.0000      436.0000    23526.0410
     5711.5039    24491.0000      444.0000    25556.8828
     5714.3682    28108.0000      474.0000    28922.5293
     5717.2310    33602.0000      522.0000    33983.6094
     5720.0801    41280.0000      579.0000    40818.9844
     5722.9429    49249.0000      631.0000    49134.9844
     5725.8071    58749.0000      694.0000    57995.5938
     5728.6709    66010.0000      733.0000    66099.1875
     5731.5352    72016.0000      771.0000    72177.3906
     5734.3979    75814.0000      788.0000    75434.7812
     5737.2769    76019.0000      790.0000    75780.9062
     5740.1411    73794.0000      783.0000    73727.6250
     5743.0039    70040.0000      759.0000    70105.3750
     5745.8828    66909.0000      742.0000    65686.5234
     5748.7622    61260.0000      710.0000    61102.9531
     5751.6250    56952.0000      688.0000    56745.0000
     5754.4888    51698.0000      652.0000    52751.7031
     5757.3682    48688.0000      633.0000    49158.4766
     5760.2471    44898.0000      608.0000    45990.3047
     5763.1260    42460.0000      592.0000    43239.9258
     5766.0200    39490.0000      568.0000    40910.0938
     5768.9141    39121.0000      569.0000    39073.2734
     5771.7930    38227.0000      562.0000    37849.6016
     5774.6719    37899.0000      560.0000    37401.0156
     5777.5508    38751.0000      567.0000    37906.0117
     5780.4448    40660.0000      579.0000    39499.1328
     5783.3389    44217.0000      607.0000    42120.2969
     5786.2339    46223.0000      618.0000    45442.5117
     5789.1279    48657.0000      639.0000    48880.0195
     5792.0220    51135.0000      652.0000    51742.9570
     5794.9170    50920.0000      655.0000    53468.8125
     5797.8110    51145.0000      653.0000    53816.3047
     5800.7202    51446.0000      656.0000    52905.0781
     5803.6138    50539.0000      654.0000    51140.8047
     5806.5088    49830.0000      646.0000    49029.0938
     5809.4180    48554.0000      638.0000    47061.1172
     5812.3281    47719.0000      633.0000    45673.3672
     5815.2368    48380.0000      638.0000    45180.6094
     5818.1470    47406.0000      632.0000    45721.5312
     5821.0562    47789.0000      635.0000    47221.5273
     5823.9658    49474.0000      647.0000    49342.4648
     5826.8750    50143.0000      652.0000    51534.1562
     5829.7852    51204.0000      660.0000    53193.7812
     5832.6948    52060.0000      666.0000    53872.2891
     5835.6040    51911.0000      665.0000    53425.4531
     5838.5288    52358.0000      665.0000    52012.7070
     5841.4541    51069.0000      661.0000    50027.8008
     5844.3628    48970.0000      648.0000    47986.8672
     5847.2881    48341.0000      641.0000    46420.1367
     5850.2129    46740.0000      633.0000    45954.3711
     5853.1382    47927.0000      639.0000    47282.3398
     5856.0630    50858.0000      662.0000    51113.7188
     5858.9868    57339.0000      701.0000    57964.2109
     5861.9282    67212.0000      761.0000    67898.9688
     5864.8530    80356.0000      838.0000    79978.8828
     5867.7769    92672.0000      898.0000    92577.3984
     5870.7178   103541.0000      952.0000   103620.8594
     5873.6582   110066.0000      984.0000   111110.4688
     5876.5981   114675.0000     1005.0000   114046.2109
     5879.5381   112584.0000      997.0000   112571.9375
     5882.4780   109247.0000      982.0000   107692.7188
     5885.4180   102176.0000      950.0000   100753.3906
     5888.3579    93900.0000      910.0000    92973.1562
     5891.2988    85872.0000      870.0000    85203.9766
     5894.2388    78817.0000      833.0000    77923.4531
     5897.1938    71195.0000      787.0000    71289.1719
     5900.1499    64819.0000      755.0000    65371.2500
     5903.0898    61115.0000      733.0000    60158.2812
     5906.0449    54900.0000      691.0000    55530.0352
     5909.0010    49761.0000      662.0000    51446.2031
     5911.9409    46873.0000      642.0000    47863.8164
     5914.8960    44306.0000      622.0000    44688.2695
     5917.8672    41141.0000      599.0000    41874.6875
     5920.8232    38627.0000      584.0000    39408.2383
     5923.7778    36936.0000      569.0000    37235.4648
     5926.7500    35011.0000      554.0000    35309.7930
     5929.7051    33032.0000      541.0000    33623.0898
     5932.6602    31548.0000      527.0000    32136.6523
     5935.6309    30318.0000      517.0000    30820.2500
     5938.6021    29353.0000      509.0000    29660.8047
     5941.5718    28483.0000      501.0000    28640.2910
     5944.5430    28128.0000      499.0000    27741.1855
     5947.5142    26550.0000      485.0000    26949.4883
     5950.4849    26218.0000      482.0000    26252.4961
     5953.4561    25895.0000      480.0000    25638.6973
     5956.4419    25148.0000      471.0000    25095.7852
     5959.4282    24352.0000      466.0000    24618.0391
     5962.3989    23530.0000      458.0000    24199.8008
     5965.3848    23675.0000      458.0000    23829.8789
     5968.3711    23409.0000      458.0000    23504.4512
     5971.3569    23079.0000      453.0000    23218.3008
     5974.3428    23277.0000      458.0000    22966.6953
     5977.3301    23425.0000      457.0000    22745.4180
     5980.3149    22867.0000      454.0000    22551.1230
     5983.3008    22803.0000      452.0000    22385.1094
     5986.3032    22051.0000      445.0000    22234.5039
     5989.2891    22105.0000      448.0000    22103.1602
     5992.2749    21966.0000      445.0000    21988.0273
     5995.2759    22089.0000      446.0000    21886.7402
     5998.2778    21799.0000      444.0000    21798.2168
     6001.2788    21615.0000      442.0000    21721.0410
     6004.2808    21330.0000      440.0000    21653.8750
     6007.2822    21654.0000      443.0000    21595.6348
     6010.2842    22452.0000      452.0000    21545.3262
     6013.2852    21700.0000      445.0000    21502.1309
     6016.2871    22248.0000      450.0000    21465.2988
     6019.3032    21889.0000      445.0000    21434.1016
     6022.3198    21356.0000      442.0000    21408.2070
     6025.3208    21569.0000      445.0000    21387.3027
     6028.3379    22108.0000      448.0000    21375.1777
     6031.3550    21849.0000      448.0000    21373.3438
     6034.3560    21718.0000      447.0000    21375.9570
     6037.3730    21447.0000      443.0000    21383.4492
     6040.4048    21456.0000      443.0000    21397.0762
     6043.4219    21628.0000      448.0000    21419.5566
     6046.4380    20926.0000      439.0000    21457.5273
     6049.4712    21568.0000      446.0000    21526.1953
     6052.4868    22167.0000      454.0000    21656.0859
     6055.5039    22068.0000      452.0000    21909.1992
     6058.5361    21940.0000      451.0000    22399.1035
     6061.5679    22645.0000      458.0000    23301.7188
     6064.6001    24436.0000      476.0000    24854.0918
     6067.6318    26843.0000      500.0000    27302.9121
     6070.6641    31015.0000      538.0000    30803.0547
     6073.6958    35852.0000      579.0000    35282.7617
     6076.7441    40221.0000      611.0000    40386.3750
     6079.7910    45207.0000      652.0000    45415.8906
     6082.8232    50174.0000      688.0000    49601.5469
     6085.8550    52763.0000      706.0000    52436.6016
     6088.9019    53497.0000      708.0000    53838.4492
     6091.9502    54106.0000      717.0000    54199.5195
     6094.9971    54165.0000      714.0000    54293.9414
     6098.0439    55081.0000      724.0000    55016.0391
     6101.0918    57210.0000      735.0000    57101.0078
     6104.1401    59837.0000      757.0000    60866.6797
     6107.1870    66562.0000      796.0000    66041.3594
     6110.2490    71681.0000      827.0000    71812.6406
     6113.3120    77778.0000      863.0000    76979.7031
     6116.3589    81287.0000      888.0000    80477.5625
     6119.4072    80886.0000      882.0000    81870.8984
     6122.4692    81052.0000      884.0000    81450.2109
     6125.5322    79716.0000      877.0000    80167.3594
     6128.5952    79201.0000      875.0000    79325.2969
     6131.6572    79812.0000      879.0000    80154.2188
     6134.7202    84587.0000      906.0000    83410.5078
     6137.7979    90534.0000      935.0000    89097.1875
     6140.8760    95807.0000      968.0000    96272.5938
     6143.9380   102415.0000     1002.0000   103279.7656
     6147.0010   108980.0000     1036.0000   108414.7812
     6150.0791   109779.0000     1036.0000   110438.3281
     6153.1572   107897.0000     1032.0000   108982.6719
     6156.2349   104469.0000     1011.0000   104600.9609
     6159.3130    97784.0000      983.0000    98384.6016
     6162.3911    90516.0000      941.0000    91568.0000
     6165.4692    85517.0000      919.0000    85273.3203
     6168.5469    80929.0000      890.0000    80444.0312
     6171.6411    79280.0000      882.0000    77853.9375
     6174.7339    80191.0000      888.0000    78104.6406
     6177.8271    82185.0000      900.0000    81388.3359
     6180.9048    87219.0000      933.0000    87236.5469
     6183.9829    94442.0000      968.0000    94507.3203
     6187.0762   100231.0000      999.0000   101537.6719
     6190.1699   105032.0000     1024.0000   106536.7344
     6193.2632   106973.0000     1034.0000   108316.8984
     6196.3721   105456.0000     1023.0000   106598.2500
     6199.4800   103904.0000     1021.0000   101944.6797
     6202.5742    97177.0000      987.0000    95424.2422
     6205.6670    90485.0000      953.0000    88073.8125
     6208.7749    82273.0000      904.0000    80653.8828
     6211.8838    74683.0000      865.0000    73678.8203
     6214.9780    69202.0000      833.0000    67391.5234
     6218.0859    62253.0000      786.0000    61783.5156
     6221.1948    57548.0000      760.0000    56840.3867
     6224.3042    51948.0000      718.0000    52502.8125
     6227.4268    48382.0000      694.0000    48687.4883
     6230.5361    45067.0000      673.0000    45361.6836
     6233.6450    42227.0000      649.0000    42450.6523
     6236.7690    38440.0000      619.0000    39891.0938
     6239.8921    37159.0000      609.0000    37653.2383
     6243.0161    34937.0000      591.0000    35695.7109
     6246.1401    32863.0000      574.0000    33984.2500
     6249.2642    31334.0000      561.0000    32488.1719
     6252.3882    30288.0000      552.0000    31180.6211
     6255.5122    28562.0000      536.0000    30038.0801
     6258.6362    27647.0000      528.0000    29039.9727
     6261.7598    27213.0000      525.0000    28168.4141
     6264.8838    26108.0000      514.0000    27407.3848
     6268.0229    26053.0000      512.0000    26740.2402
     6271.1621    24940.0000      504.0000    26158.7109
     6274.2861    24936.0000      504.0000    25654.3926
     6277.4258    24698.0000      500.0000    25213.0449
     6280.5649    24038.0000      496.0000    24829.2734
     6283.7041    23360.0000      487.0000    24495.9023
     6286.8579    23414.0000      488.0000    24205.4805
     6289.9980    22994.0000      486.0000    23955.2246
     6293.1372    22772.0000      482.0000    23739.1602
     6296.2920    22958.0000      484.0000    23552.2891
     6299.4458    22197.0000      477.0000    23392.2598
     6302.5850    22084.0000      478.0000    23256.5488
     6305.7251    22736.0000      483.0000    23141.7852
     6308.8789    21717.0000      473.0000    23045.5234
     6312.0332    21254.0000      468.0000    22966.6367
     6315.1880    21143.0000      467.0000    22904.0332
     6318.3579    21501.0000      469.0000    22830.9688
     6321.5278    23139.0000      490.0000    22775.6152
     6324.6831    23013.0000      489.0000    22743.2285
     6327.8369    24018.0000      500.0000    22746.8457
     6331.0068    24968.0000      508.0000    22818.7246
     6334.1768    26772.0000      529.0000    23030.3809
     6337.3320    27383.0000      535.0000    23525.4414
     6340.5010    29347.0000      552.0000    24580.5078
     6343.6709    30716.0000      568.0000    26644.4219
     6346.8408    33154.0000      588.0000    30347.5664
     6350.0259    38315.0000      633.0000    36429.9297
     6353.1958    46230.0000      699.0000    45351.1406
     6356.3662    55479.0000      764.0000    57090.9297
     6359.5508    69611.0000      858.0000    70803.3281
     6362.7358    83121.0000      940.0000    84649.5469
     6365.9209    93558.0000     1000.0000    96406.0078
     6369.1060   101405.0000     1043.0000   104195.8828
     6372.2920   106520.0000     1070.0000   107153.8203
     6375.4771   106631.0000     1072.0000   105586.8672
     6378.6621   101298.0000     1045.0000   100637.6875
     6381.8472    95725.0000     1016.0000    93725.5156
     6385.0322    87450.0000      971.0000    86086.1562
     6388.2168    80392.0000      931.0000    78557.1797
     6391.4180    72929.0000      882.0000    71546.0938
     6394.6191    66047.0000      844.0000    65261.3359
     6397.8042    58701.0000      795.0000    59741.9922
     6401.0039    54842.0000      766.0000    54880.8047
     6404.2051    49371.0000      730.0000    50629.5156
     6407.4048    45169.0000      695.0000    46918.3984
     6410.6211    42644.0000      676.0000    43662.4922
     6413.8218    39544.0000      655.0000    40834.8477
     6417.0220    37234.0000      633.0000    38366.6758
     6420.2378    35627.0000      620.0000    36202.0195
     6423.4541    33602.0000      602.0000    34313.0312
     6426.6689    32660.0000      594.0000    32665.4023
     6429.8848    30758.0000      577.0000    31227.0059
     6433.1011    30865.0000      579.0000    29971.3047
     6436.3169    30128.0000      572.0000    28875.2266
     6439.5332    29625.0000      568.0000    27917.9844
     6442.7490    29624.0000      568.0000    27082.0430
     6445.9639    28805.0000      561.0000    26351.9102
     6449.1802    27490.0000      549.0000    25713.5273
     6452.4121    26900.0000      541.0000    25152.9121
     6455.6431    27100.0000      546.0000    24663.0879
     6458.8579    25438.0000      529.0000    24236.7969
     6462.0889    25090.0000      524.0000    23861.9102
     6465.3198    25100.0000      527.0000    23533.8359
     6468.5508    23768.0000      511.0000    23246.5957
     6471.7979    24144.0000      515.0000    22993.8223
     6475.0288    23048.0000      506.0000    22773.4922
     6478.2598    22326.0000      496.0000    22580.3516
     6481.5059    22473.0000      498.0000    22410.2617
     6484.7529    23580.0000      511.0000    22261.1680
     6488.0000    22500.0000      500.0000    22130.5508
     6491.2461    22125.0000      496.0000    22016.2305
     6494.4932    21670.0000      491.0000    21915.4922
     6497.7388    21689.0000      492.0000    21832.6602
     6500.9849    22078.0000      497.0000    21756.9688
     6504.2319    20888.0000      484.0000    21691.5957
     6507.4790    21252.0000      488.0000    21635.7461
     6510.7251    21140.0000      488.0000    21588.9180
     6513.9858    21241.0000      487.0000    21550.9121
     6517.2480    20652.0000      483.0000    21522.8223
     6520.4951    20924.0000      486.0000    21507.5586
     6523.7559    20741.0000      483.0000    21512.3945
     6527.0181    20562.0000      483.0000    21555.4219
     6530.2798    21749.0000      495.0000    21677.6504
     6533.5571    21853.0000      497.0000    21968.1426
     6536.8179    21345.0000      494.0000    22593.1719
     6540.0801    22802.0000      508.0000    23844.2656
     6543.3569    24574.0000      528.0000    26169.8125
     6546.6338    27825.0000      562.0000    30077.9219
     6549.9121    34910.0000      631.0000    36027.0859
     6553.1880    44942.0000      716.0000    44118.4570
     6556.4658    55225.0000      796.0000    53872.2578
     6559.7432    65541.0000      869.0000    64116.2812
     6563.0200    75066.0000      931.0000    73253.7031
     6566.2959    79390.0000      959.0000    79784.0938
     6569.5742    81831.0000      975.0000    82857.1250
     6572.8511    84359.0000      991.0000    82493.1953
     6576.1431    78481.0000      952.0000    79421.0938
     6579.4360    74440.0000      932.0000    74739.7031
     6582.7280    70614.0000      904.0000    69558.2812
     6586.0210    64773.0000      870.0000    64808.8047
     6589.3130    59981.0000      834.0000    61265.0781
     6592.6050    58387.0000      827.0000    59606.3125
     6595.8970    59729.0000      833.0000    60424.0078
     6599.2051    63345.0000      859.0000    64095.7266
     6602.4980    70976.0000      915.0000    70440.6406
     6605.7900    78709.0000      961.0000    78605.5781
     6609.0981    88425.0000     1021.0000    87101.5703
     6612.4048    93621.0000     1052.0000    94050.6406
     6615.7129    98270.0000     1080.0000    97974.0547
     6619.0210    97800.0000     1078.0000    98239.2188
     6622.3291    95004.0000     1063.0000    95157.9219
     6625.6362    90258.0000     1037.0000    89675.8828
     6628.9438    84939.0000     1006.0000    82914.7656
     6632.2671    76928.0000      953.0000    75789.5078
     6635.5898    70188.0000      915.0000    68957.2109
     6638.8970    64147.0000      875.0000    62755.9609
     6642.2212    56656.0000      818.0000    57221.0391
     6645.5430    51418.0000      784.0000    52376.5312
     6648.8672    47769.0000      752.0000    48152.6719
     6652.1890    44105.0000      727.0000    44483.0625
     6655.5132    40019.0000      690.0000    41292.5000
     6658.8511    37221.0000      666.0000    38511.2266
     6662.1729    34993.0000      649.0000    36107.0977
     6665.4971    32749.0000      625.0000    34017.1016
     6668.8350    31137.0000      610.0000    32194.4844
     6672.1738    30552.0000      605.0000    30611.3438
     6675.5122    29043.0000      591.0000    29236.5742
     6678.8501    27660.0000      577.0000    28042.4531
     6682.1880    26264.0000      563.0000    27004.8008
     6685.5269    25424.0000      554.0000    26102.5742
     6688.8652    24584.0000      546.0000    25318.1641
     6692.2031    24317.0000      543.0000    24635.8730
     6695.5571    24423.0000      542.0000    24039.3555
     6698.9111    23098.0000      530.0000    23520.2090
     6702.2490    23381.0000      534.0000    23070.1406
     6705.6030    22860.0000      526.0000    22675.8809
     6708.9561    22851.0000      529.0000    22332.0957
     6712.3101    22260.0000      520.0000    22031.8672
     6715.6792    22861.0000      528.0000    21768.3711
     6719.0322    21751.0000      518.0000    21538.9805
     6722.3862    21408.0000      512.0000    21337.9336
     6725.7549    21948.0000      519.0000    21160.8027
     6729.1240    21234.0000      511.0000    21005.1855
     6732.4780    22028.0000      523.0000    20868.8145
     6735.8311    21324.0000      513.0000    20748.5273
     6739.2002    21347.0000      514.0000    20641.6777
     6742.5688    20591.0000      505.0000    20547.0352
     6745.9531    20556.0000      503.0000    20462.5996
     6749.3369    21042.0000      512.0000    20387.4355
     6752.7070    21029.0000      512.0000    20320.5664
     6756.0762    21024.0000      512.0000    20260.6445
     6759.4590    20413.0000      503.0000    20206.5430
     6762.8442    20950.0000      512.0000    20157.6973
     6766.2129    20485.0000      507.0000    20113.6738
     6769.5972    20210.0000      502.0000    20073.4688
     6772.9810    19717.0000      499.0000    20036.7930
     6776.3652    20238.0000      503.0000    20003.2051
     6779.7651    20298.0000      505.0000    19972.1973
     6783.1489    19826.0000      501.0000    19943.7402
     6786.5342    19625.0000      497.0000    19917.3984
     6789.9331    19867.0000      501.0000    19892.8613
     6793.3330    19734.0000      500.0000    19870.0312
     6796.7319    19927.0000      502.0000    19848.7617
     6800.1318    19622.0000      499.0000    19828.9023
     6803.5322    19457.0000      497.0000    19810.3516
     6806.9312    20073.0000      506.0000    19793.0352
     6810.3311    19661.0000      501.0000    19777.6035
     6813.7300    19515.0000      500.0000    19762.5859
     6817.1460    18781.0000      489.0000    19748.6074
     6820.5601    20089.0000      508.0000    19751.2168
     6823.9600    20152.0000      509.0000    19754.9512
     6827.3750    20179.0000      508.0000    19759.8926
     6830.7891    19481.0000      502.0000    19766.1035
     6834.2041    19330.0000      498.0000    19773.6875
     6837.6191    20005.0000      509.0000    19782.7871
     6841.0342    19372.0000      500.0000    19793.5938
     6844.4639    20058.0000      509.0000    19806.4141
     6847.8789    19910.0000      510.0000    19821.4824
     6851.2939    19672.0000      505.0000    19843.1875
     6854.7241    19276.0000      500.0000    19864.7539
     6858.1538    20284.0000      514.0000    19891.3008
     6861.5840    20178.0000      513.0000    19925.7246
     6865.0151    19782.0000      508.0000    19974.1367
     6868.4448    20306.0000      515.0000    20052.8359
     6871.8750    20708.0000      521.0000    20197.4609
     6875.3208    20941.0000      522.0000    20489.8945
     6878.7661    20664.0000      521.0000    21095.9551
     6882.1958    20784.0000      523.0000    22314.3242
     6885.6421    23058.0000      549.0000    24645.7852
     6889.0869    26443.0000      591.0000    28741.8262
     6892.5332    34475.0000      672.0000    35282.8945
     6895.9790    45050.0000      773.0000    44658.7500
     6899.4238    56045.0000      860.0000    56598.7109
     6902.8701    70990.0000      974.0000    69949.0234
     6906.3149    84555.0000     1061.0000    82765.7344
     6909.7759    94492.0000     1123.0000    92961.4844
     6913.2358   100847.0000     1162.0000    98906.4375
     6916.6968    99773.0000     1157.0000   100188.6016
     6920.1582    97645.0000     1146.0000    97556.4531
     6923.6191    92305.0000     1114.0000    92537.2422
     6927.0801    88169.0000     1090.0000    86952.6328
     6930.5410    81353.0000     1047.0000    82589.5938
     6934.0010    77772.0000     1024.0000    81044.2656
     6937.4619    80919.0000     1046.0000    83566.6875
     6940.9229    90960.0000     1111.0000    90777.5078
     6944.3989   103766.0000     1184.0000   102322.2344
     6947.8750   118279.0000     1273.0000   116460.6172
     6951.3521   130650.0000     1335.0000   130395.9688
     6954.8281   141224.0000     1397.0000   141054.5625
     6958.3042   146091.0000     1417.0000   146206.4531
     6961.7798   145018.0000     1419.0000   145178.6562
     6965.2559   138264.0000     1380.0000   138820.6875
     6968.7480   128541.0000     1330.0000   128830.4219
     6972.2241   118896.0000     1285.0000   117199.6016
     6975.7002   107037.0000     1214.0000   105363.2422
     6979.1909    94107.0000     1138.0000    94195.8281
     6982.6831    82455.0000     1065.0000    84165.4688
     6986.1738    74667.0000     1014.0000    75388.7891
     6989.6660    67782.0000      966.0000    67822.1562
     6993.1572    61257.0000      919.0000    61405.3047
     6996.6641    55540.0000      872.0000    56086.1406
     7000.1699    51016.0000      840.0000    51938.1172
     7003.6621    48659.0000      821.0000    49075.6719
     7007.1680    47708.0000      810.0000    47596.7500
     7010.6758    48587.0000      822.0000    47545.0742
     7014.1821    49067.0000      823.0000    48736.2578
     7017.6890    50798.0000      842.0000    50701.1406
     7021.1958    53294.0000      860.0000    52740.8906
     7024.7031    53899.0000      869.0000    54123.5078
     7028.2090    53423.0000      862.0000    54334.9922
     7031.7310    52783.0000      858.0000    53228.1250
     7035.2529    49701.0000      833.0000    51011.7500
     7038.7749    47750.0000      817.0000    48100.9102
     7042.2822    45953.0000      806.0000    44951.0859
     7045.7891    41655.0000      765.0000    41904.9141
     7049.3271    39772.0000      745.0000    39183.1992
     7052.8638    37619.0000      728.0000    36980.4531
     7056.3862    35797.0000      711.0000    35418.0977
     7059.9082    35342.0000      707.0000    34564.1797
     7063.4302    34860.0000      703.0000    34422.5312
     7066.9668    34817.0000      700.0000    34887.7344
     7070.5049    35820.0000      714.0000    35710.6055
     7074.0420    36388.0000      717.0000    36536.9023
     7077.5801    36091.0000      718.0000    37015.2812
     7081.1172    36794.0000      723.0000    36916.7617
     7084.6538    36444.0000      723.0000    36199.1953
     7088.1919    34010.0000      696.0000    34981.3242
     7091.7451    33511.0000      692.0000    33458.1094
     7095.2822    32273.0000      683.0000    31843.7383
     7098.8188    31358.0000      671.0000    30278.8789
     7102.3721    28640.0000      642.0000    28839.1289
     7105.9248    27429.0000      629.0000    27563.6680
     7109.4780    26907.0000      623.0000    26452.6641
     7113.0298    25064.0000      602.0000    25493.1094
     7116.5981    24557.0000      594.0000    24663.1367
     7120.1660    24114.0000      592.0000    23949.8281
     7123.7192    23668.0000      587.0000    23339.3008
     7127.2710    23276.0000      583.0000    22814.7383
     7130.8389    21984.0000      565.0000    22362.0020
     7134.4072    21830.0000      566.0000    21973.1660
     7137.9761    21893.0000      565.0000    21639.2734
     7141.5430    21852.0000      567.0000    21352.8164
     7145.1118    21228.0000      557.0000    21106.8535
     7148.6948    20769.0000      552.0000    20895.0996
     7152.2632    20297.0000      549.0000    20714.3613
     7155.8311    20708.0000      552.0000    20559.5508
     7159.4141    20735.0000      553.0000    20426.5508
     7162.9980    20669.0000      553.0000    20311.6973
     7166.5811    19748.0000      541.0000    20214.9297
     7170.1641    19897.0000      544.0000    20132.7129
     7173.7480    20152.0000      548.0000    20063.1348
     7177.3311    19926.0000      545.0000    20004.6543
     7180.9141    20750.0000      557.0000    19955.9785
     7184.5132    20403.0000      550.0000    19916.0137
     7188.1118    20024.0000      548.0000    19884.5898
     7191.6948    20420.0000      554.0000    19862.3770
     7195.2930    20417.0000      552.0000    19851.9980
     7198.8921    20279.0000      553.0000    19861.3184
     7202.4912    19842.0000      545.0000    19908.1562
     7206.0889    19732.0000      547.0000    20028.4688
     7209.6880    20290.0000      553.0000    20281.9121
     7213.3018    21136.0000      564.0000    20771.3320
     7216.9160    21727.0000      573.0000    21615.2090
     7220.5151    22807.0000      590.0000    22910.4863
     7224.1128    24419.0000      608.0000    24685.6816
     7227.7280    26766.0000      637.0000    26844.7793
     7231.3408    28983.0000      663.0000    29116.3438
     7234.9551    30981.0000      686.0000    31145.9414
     7238.5840    33370.0000      710.0000    32614.7422
     7242.2139    33812.0000      718.0000    33365.4219
     7245.8281    32300.0000      703.0000    33507.9258
     7249.4409    33986.0000      722.0000    33412.2891
     7253.0708    34662.0000      727.0000    33660.7812
     7256.7002    34769.0000      731.0000    34996.1289
     7260.3291    36531.0000      747.0000    38209.3047
     7263.9580    43720.0000      822.0000    43936.8750
     7267.5869    52876.0000      901.0000    52354.0625
     7271.2168    64729.0000     1003.0000    62880.8516
     7274.8472    73743.0000     1067.0000    74094.9375
     7278.4912    83361.0000     1137.0000    84073.7891
     7282.1362    91208.0000     1191.0000    90928.2031
     7285.7798    91706.0000     1196.0000    93617.3125
     7289.4248    92847.0000     1204.0000    92197.3906
     7293.0688    87919.0000     1173.0000    87588.0156
     7296.7139    82526.0000     1137.0000    81075.4688
     7300.3579    75123.0000     1085.0000    73853.3359
     7304.0029    66700.0000     1023.0000    66755.6719
     7307.6631    59445.0000      962.0000    60214.3828
     7311.3232    55285.0000      933.0000    54432.3281
     7314.9668    49530.0000      883.0000    49438.4297
     7318.6270    45912.0000      848.0000    45123.1367
     7322.2871    41653.0000      812.0000    41425.6914
     7325.9468    37341.0000      766.0000    38262.5781
     7329.6060    34915.0000      745.0000    35558.3789
     7333.2671    33054.0000      722.0000    33246.1953
     7336.9419    30188.0000      691.0000    31264.6523
     7340.6172    27957.0000      666.0000    29574.3320
     7344.2920    27950.0000      667.0000    28134.3633
     7347.9531    26959.0000      658.0000    26913.7227
     7351.6118    25705.0000      641.0000    25878.4062
     7355.3032    25452.0000      636.0000    24997.5000
     7358.9932    23785.0000      618.0000    24265.6816
     7362.6680    23656.0000      617.0000    23682.6211
     7366.3442    22620.0000      604.0000    23270.2891
     7370.0190    23587.0000      617.0000    23110.7520
     7373.7090    23959.0000      620.0000    23402.1543
     7377.3999    24998.0000      636.0000    24533.6230
     7381.0908    25186.0000      637.0000    27162.2832
     7384.7808    30273.0000      701.0000    32212.4297
     7388.4722    39429.0000      798.0000    40704.8359
     7392.1621    52220.0000      923.0000    53324.3438
     7395.8530    70831.0000     1072.0000    69884.2031
     7399.5591    89105.0000     1205.0000    88961.5703
     7403.2642   109004.0000     1336.0000   107730.8906
     7406.9702   125559.0000     1437.0000   122960.1250
     7410.6611   134112.0000     1494.0000   132076.3594
     7414.3672   134084.0000     1483.0000   134214.0469
     7418.0879   129399.0000     1464.0000   130053.2344
     7421.7930   122453.0000     1425.0000   121492.0703
     7425.5000   113034.0000     1369.0000   110635.5078
     7429.2061   100764.0000     1293.0000    99225.7422
     7432.9111    87452.0000     1204.0000    88365.4766
     7436.6318    77774.0000     1132.0000    78542.3281
     7440.3540    69415.0000     1074.0000    69951.5469
     7444.0742    63164.0000     1021.0000    62553.0625
     7447.7949    56284.0000      968.0000    56217.7773
     7451.5171    50051.0000      910.0000    50807.3945
     7455.2529    44627.0000      860.0000    46183.4297
     7458.9751    39301.0000      812.0000    42276.4297
     7462.6948    37355.0000      789.0000    38998.0234
     7466.4321    34363.0000      758.0000    36305.2344
     7470.1680    34066.0000      755.0000    34246.2109
     7473.9048    32766.0000      741.0000    32921.7500
     7477.6421    31984.0000      733.0000    32495.0176
     7481.3770    32496.0000      740.0000    33131.7148
     7485.1138    35597.0000      775.0000    34895.8047
     7488.8662    37862.0000      797.0000    37639.2070
     7492.6182    40721.0000      830.0000    40900.4219
     7496.3540    44478.0000      869.0000    43984.0859
     7500.1060    45830.0000      879.0000    46215.2031
     7503.8579    48059.0000      905.0000    47109.9062
     7507.6099    45908.0000      882.0000    46578.9180
     7511.3608    44373.0000      871.0000    44875.5547
     7515.1128    41880.0000      844.0000    42431.7227
     7518.8799    40296.0000      828.0000    39672.5312
     7522.6318    38305.0000      812.0000    36947.4766
     7526.3838    34339.0000      767.0000    34433.3672
     7530.1509    31026.0000      730.0000    32198.0723
     7533.9180    29837.0000      716.0000    30261.0625
     7537.6851    29317.0000      711.0000    28599.2754
     7541.4521    26545.0000      677.0000    27179.4551
     7545.2192    25910.0000      670.0000    25968.1250
     7549.0020    25847.0000      667.0000    24931.1387
     7552.7842    24371.0000      651.0000    24047.4883
     7556.5508    22663.0000      629.0000    23297.1699
     7560.3340    22434.0000      624.0000    22654.4727
     7564.1162    21579.0000      615.0000    22106.5508
     7567.8979    21355.0000      610.0000    21639.2031
     7571.6812    20886.0000      607.0000    21240.2227
     7575.4629    20576.0000      600.0000    20899.7090
     7579.2461    20756.0000      606.0000    20608.7109
     7583.0278    20103.0000      595.0000    20369.7734
     7586.8262    20208.0000      597.0000    20156.3457
     7590.6240    20586.0000      603.0000    19973.7773
     7594.4209    19730.0000      591.0000    19817.4668
     7598.2192    19752.0000      592.0000    19683.4023
     7602.0171    21202.0000      614.0000    19568.3301
     7605.8140    21370.0000      617.0000    19469.4277
     7609.6118    21323.0000      617.0000    19384.2324
     7613.4248    20522.0000      603.0000    19310.4531
     7617.2378    20469.0000      606.0000    19246.6992
     7621.0361    20727.0000      610.0000    19191.6680
     7624.8491    20158.0000      600.0000    19143.6719
     7628.6621    19388.0000      592.0000    19101.8516
     7632.4751    20348.0000      604.0000    19065.2949
     7636.2881    20138.0000      604.0000    19033.2168
     7640.1011    20030.0000      601.0000    19004.9570
     7643.9292    19377.0000      592.0000    18979.8535
     7647.7578    18626.0000      581.0000    18957.5430
     7651.5859    19087.0000      588.0000    18941.4570
     7655.4141    20005.0000      603.0000    18923.6191
     7659.2432    18073.0000      574.0000    18907.5137
     7663.0708    19344.0000      594.0000    18892.8945
     7666.8989    19753.0000      601.0000    18879.5410
     7670.7280    18250.0000      579.0000    18867.2676
     7674.5562    19990.0000      606.0000    18855.9258
     7678.3999    18373.0000      579.0000    18845.3379
     7682.2441    18367.0000      582.0000    18835.4375
     7686.0869    18996.0000      590.0000    18826.1328
     7689.9312    18453.0000      585.0000    18817.3320
     7693.7739    19043.0000      592.0000    18808.9766
     7697.6182    19296.0000      599.0000    18800.9961
     7701.4619    19100.0000      594.0000    18793.3477
     7705.3198    18930.0000      592.0000    18785.9570
     7709.1792    18985.0000      594.0000    18778.8145
     7713.0229    18459.0000      589.0000    18771.9219
     7716.8672    18550.0000      588.0000    18765.2168
     7720.7261    17939.0000      579.0000    18758.6582
     7724.5840    17566.0000      574.0000    18755.1426
     7728.4580    18443.0000      586.0000    18748.8926
     7732.3330    18082.0000      583.0000    18741.5293
     7736.1919    18315.0000      588.0000    18735.5508
     7740.0508    18412.0000      590.0000    18729.6680
     7743.9248    18212.0000      585.0000    18723.8574
     7747.7998    18417.0000      591.0000    18718.1309
     7751.6738    18920.0000      597.0000    18712.4863
     7755.5488    17986.0000      585.0000    18706.9141
     7759.4229    18282.0000      588.0000    18701.4141
     7763.3120    18174.0000      587.0000    18695.9629
     7767.1870    18650.0000      598.0000    18690.5977
     7771.0610    18396.0000      592.0000    18685.2969
     7774.9502    18047.0000      587.0000    18680.0371
     7778.8398    18178.0000      590.0000    18673.1230
     7782.7290    18399.0000      594.0000    18668.0059
     7786.6191    19206.0000      607.0000    18662.9512
     7790.5088    18552.0000      598.0000    18657.9551
     7794.4141    18194.0000      590.0000    18653.0039
     7798.3188    18519.0000      598.0000    18648.1172
     7802.2080    18171.0000      593.0000    18643.3164
     7806.1128    18557.0000      598.0000    18638.5664
     7810.0181    17981.0000      592.0000    18633.8848
     7813.9229    17989.0000      590.0000    18629.2754
     7817.8281    19233.0000      613.0000    18624.7422
     7821.7329    19249.0000      611.0000    18622.8633
     7825.6528    19326.0000      613.0000    18618.5176
     7829.5581    19309.0000      616.0000    18614.2754
     7833.4629    19803.0000      622.0000    18610.1270
     7837.3828    18504.0000      602.0000    18606.0605
     7841.3032    18907.0000      609.0000    18602.0977
     7845.2241    17966.0000      595.0000    18598.2480
     7849.1440    18387.0000      602.0000    18594.5137
     7853.0801    17900.0000      592.0000    18590.4902
     7857.0151    18315.0000      602.0000    18587.0039
     7860.9351    18430.0000      605.0000    18583.6758
     7864.8550    18311.0000      603.0000    18580.5039
     7868.7910    19034.0000      613.0000    18577.4805
     7872.7261    19214.0000      619.0000    18574.6367
     7876.6621    18928.0000      613.0000    18571.9844
     7880.6128    18449.0000      606.0000    18569.5352
     7884.5479    18475.0000      609.0000    18567.3184
     7888.4839    19320.0000      621.0000    18565.3477
     7892.4351    18113.0000      602.0000    18563.6387
     7896.3862    18858.0000      615.0000    18562.2227
     7900.3359    18676.0000      612.0000    18561.1309
     7904.2871    18392.0000      609.0000    18560.3906
     7908.2378    17315.0000      592.0000    18559.8457
     7912.1890    18322.0000      609.0000    18567.6875
     7916.1401    18879.0000      618.0000    18577.2188
     7920.0908    18515.0000      613.0000    18586.0820
     7924.0571    17534.0000      595.0000    18595.5723
     7928.0229    18868.0000      620.0000    18605.7246
     7931.9888    18175.0000      607.0000    18616.6230
     7935.9561    18374.0000      613.0000    18628.3652
     7939.9209    18039.0000      606.0000    18641.0508
     7943.8882    19335.0000      630.0000    18654.8242
     7947.8540    19466.0000      630.0000    18669.8281
     7951.8350    18310.0000      612.0000    18686.3145
     7955.8169    18695.0000      619.0000    18704.4590
     7959.7979    18529.0000      617.0000    18724.5156
     7963.7788    18230.0000      613.0000    18746.8164
     7967.7612    19167.0000      629.0000    18771.7754
     7971.7432    18869.0000      625.0000    18799.8789
     7975.7241    18558.0000      620.0000    18831.7637
     7979.7061    18481.0000      620.0000    18868.2891
     7983.6870    18823.0000      626.0000    18910.6465
     7987.6841    19301.0000      632.0000    18961.0293
     7991.6812    19087.0000      632.0000    19023.1484
     7995.6768    19460.0000      636.0000    19105.8359
     7999.6738    19562.0000      641.0000    19231.3730
     8003.6709    19663.0000      640.0000    19455.8965
     8007.6831    20190.0000      649.0000    19917.1758
     8011.6802    21112.0000      667.0000    20912.2832
     8015.6768    22962.0000      693.0000    23034.3828
     8019.6880    25657.0000      733.0000    27322.5723
     8023.7012    33612.0000      838.0000    35264.8711
     8027.7129    48351.0000     1005.0000    48552.9297
     8031.7251    70444.0000     1214.0000    68445.3125
     8035.7368    98252.0000     1437.0000    94815.2734
     8039.7651   128041.0000     1639.0000   125542.2500
     8043.7920   157954.0000     1832.0000   156110.0469
     8047.8042   180194.0000     1961.0000   181097.5781
     8051.8320   190589.0000     2013.0000   196348.3750
     8055.8589   194715.0000     2045.0000   199999.0938
     8059.8872   190164.0000     2015.0000   193183.6562
     8063.9141   174024.0000     1935.0000   178966.0000
     8067.9409   159554.0000     1846.0000   160914.1875
     8071.9839   144696.0000     1758.0000   141921.9844
     8076.0259   128662.0000     1658.0000   123986.7031
     8080.0542   108322.0000     1526.0000   108094.7578
     8084.0820    97453.0000     1443.0000    94492.4844
     8088.1250    85494.0000     1352.0000    83188.7656
     8092.1670    76021.0000     1276.0000    74299.0312
     8096.2251    69562.0000     1217.0000    68022.3125
     8100.2832    66607.0000     1197.0000    64810.1328
     8104.3262    63880.0000     1173.0000    65104.7734
     8108.3691    69611.0000     1226.0000    69056.0000
     8112.4268    76616.0000     1283.0000    76206.1953
     8116.4849    86090.0000     1367.0000    85171.3281
     8120.5420    93110.0000     1418.0000    93856.8984
     8124.6011    99895.0000     1476.0000   100086.1172
     8128.6592   100319.0000     1475.0000   102364.1406
     8132.7319    99370.0000     1470.0000   100357.7344
     8136.8062    94524.0000     1435.0000    94805.4375
     8140.8789    86932.0000     1377.0000    87050.6328
     8144.9521    79918.0000     1321.0000    78451.2031
     8149.0259    69967.0000     1237.0000    70029.5469
     8153.0991    63279.0000     1178.0000    62382.9297
     8157.1719    56345.0000     1112.0000    55778.2812
     8161.2461    50485.0000     1054.0000    50319.7891
     8165.3188    44509.0000      991.0000    46113.8125
     8169.4082    42658.0000      968.0000    43355.9922
     8173.4971    43568.0000      983.0000    42412.7188
     8177.5688    45405.0000     1004.0000    43680.7422
     8181.6582    48253.0000     1032.0000    47427.5156
     8185.7622    55482.0000     1108.0000    53502.3750
     8189.8511    61262.0000     1170.0000    61033.0703
     8193.9395    68282.0000     1231.0000    68607.8438
     8198.0439    74223.0000     1285.0000    74602.5000
     8202.1475    75217.0000     1295.0000    77704.9922
     8206.2520    74622.0000     1291.0000    77467.1797
     8210.3555    72832.0000     1277.0000    74300.7031
     8214.4600    68168.0000     1237.0000    69153.2812
     8218.5635    62689.0000     1187.0000    63083.5469
     8222.6680    57570.0000     1139.0000    56934.9219
     8226.7715    52456.0000     1088.0000    51228.4375
     8230.8906    48807.0000     1047.0000    46173.9531
     8235.0098    43961.0000      999.0000    41837.0859
     8239.1143    38532.0000      937.0000    38179.2969
     8243.2334    35687.0000      899.0000    35092.3438
     8247.3682    32936.0000      865.0000    32511.9922
     8251.4873    31329.0000      848.0000    30356.9395
     8255.6064    29308.0000      819.0000    28575.8164
     8259.7412    27196.0000      790.0000    27144.7871
     8263.8760    25923.0000      772.0000    26097.9980
     8268.0107    25562.0000      768.0000    25549.1465
     8272.1465    25899.0000      774.0000    25734.0059
     8276.2793    26701.0000      786.0000    27019.9512
     8280.4141    30381.0000      839.0000    29846.6992
     8284.5488    34360.0000      892.0000    34552.0820
     8288.6836    40302.0000      966.0000    41120.7148
     8292.8330    49323.0000     1065.0000    48996.5547
     8296.9834    56115.0000     1141.0000    56982.1719
     8301.1338    63611.0000     1212.0000    63607.0938
     8305.2832    68836.0000     1267.0000    67642.4766
     8309.4336    70729.0000     1281.0000    68558.3750
     8313.5986    65861.0000     1237.0000    66607.5859
     8317.7480    61167.0000     1198.0000    62622.3359
     8321.8984    57744.0000     1161.0000    57574.9453
     8326.0635    52798.0000     1111.0000    52270.9336
     8330.2285    48086.0000     1062.0000    47263.1992
     8334.3936    43378.0000     1010.0000    42808.4531
     8338.5586    40117.0000      973.0000    38973.6484
     8342.7246    35874.0000      921.0000    35726.7500
     8346.9053    31869.0000      867.0000    32992.3633
     8351.0859    29742.0000      842.0000    30711.1016
     8355.2510    27379.0000      809.0000    28832.4043
     8359.4316    27474.0000      808.0000    27309.8906
     8363.6123    24799.0000      772.0000    26159.6172
     8367.7930    23745.0000      754.0000    25447.4863
     8371.9736    25883.0000      791.0000    25307.0625
     8376.1533    26589.0000      799.0000    25921.9844
     8380.3496    27273.0000      810.0000    27468.9375
     8384.5459    30307.0000      854.0000    29988.9375
     8388.7412    32763.0000      888.0000    33276.9766
     8392.9365    37001.0000      944.0000    36841.8594
     8397.1328    40450.0000      988.0000    40002.9922
     8401.3281    42276.0000     1011.0000    42116.4922
     8405.5244    42681.0000     1016.0000    42821.2266
     8409.7207    40860.0000      996.0000    42136.3516
     8413.9316    41658.0000     1003.0000    40378.5938
     8418.1426    37973.0000      962.0000    38006.7734
     8422.3389    34491.0000      919.0000    35449.0195
     8426.5498    32824.0000      894.0000    32978.8359
     8430.7764    30184.0000      859.0000    30749.9180
     8434.9873    29921.0000      859.0000    28828.7500
     8439.1992    27113.0000      817.0000    27198.6367
     8443.4258    25307.0000      791.0000    25824.2188
     8447.6514    25156.0000      789.0000    24674.4648
     8451.8779    24476.0000      779.0000    23713.6172
     8456.1035    23350.0000      762.0000    22911.4570
     8460.3311    22655.0000      752.0000    22241.5000
     8464.5576    22029.0000      743.0000    21682.4570
     8468.7842    21376.0000      733.0000    21215.9316
     8473.0107    21326.0000      733.0000    20826.6836
     8477.2529    19808.0000      705.0000    20500.8945
     8481.4941    20378.0000      718.0000    20229.4531
     8485.7363    19876.0000      708.0000    20003.2637
     8489.9775    20503.0000      722.0000    19814.9609
     8494.2197    19683.0000      706.0000    19658.2129
     8498.4766    19024.0000      695.0000    19527.4590
     8502.7188    18653.0000      692.0000    19419.2402
     8506.9609    19735.0000      709.0000    19329.4473
     8511.2178    19312.0000      703.0000    19254.8359
     8515.4746    19236.0000      702.0000    19193.2031
     8519.7314    19218.0000      703.0000    19142.4297
     8523.9893    18677.0000      694.0000    19100.7520
     8528.2461    19170.0000      703.0000    19066.7188
     8532.5186    19335.0000      704.0000    19039.0156
     8536.7910    19715.0000      714.0000    19016.7520
     8541.0479    19171.0000      706.0000    18999.1348
     8545.3203    19227.0000      705.0000    18985.3398
     8549.5928    19230.0000      708.0000    18974.8516
     8553.8652    18502.0000      693.0000    18967.1934
     8558.1533    18433.0000      693.0000    18961.9570
     8562.4404    18575.0000      696.0000    18958.8535
     8566.7129    18706.0000      702.0000    18957.6230
     8570.9854    18611.0000      699.0000    18958.0469
     8575.2734    18381.0000      695.0000    18959.9707
     8579.5605    18530.0000      699.0000    18963.2812
     8583.8486    17898.0000      688.0000    18967.8945
     8588.1514    18639.0000      700.0000    18973.7773
     8592.4551    18128.0000      694.0000    18980.9062
     8596.7422    19775.0000      724.0000    18989.2578
     8601.0303    19515.0000      720.0000    18998.9082
     8605.3330    19685.0000      722.0000    19009.9961
     8609.6367    19698.0000      725.0000    19022.6621
     8613.9395    18818.0000      708.0000    19037.2363
     8618.2578    18038.0000      694.0000    19054.5391
     8622.5605    19290.0000      720.0000    19076.2969
     8626.8643    19243.0000      718.0000    19107.2402
     8631.1826    17854.0000      693.0000    19158.8008
     8635.5010    18139.0000      699.0000    19251.9492
     8639.8193    18689.0000      710.0000    19439.0273
     8644.1377    19166.0000      720.0000    19801.6055
     8648.4561    20377.0000      742.0000    20453.5039
     8652.7744    22365.0000      777.0000    21516.6934
     8657.1084    22588.0000      779.0000    23074.0527
     8661.4414    24837.0000      820.0000    25082.8320
     8665.7754    28152.0000      870.0000    27340.7930
     8670.1094    29282.0000      891.0000    29500.7305
     8674.4434    31516.0000      921.0000    31176.8750
     8678.7764    31177.0000      920.0000    32091.6738
     8683.1104    32711.0000      940.0000    32176.5742
     8687.4590    31274.0000      921.0000    31565.1250
     8691.8076    31063.0000      919.0000    30522.6836
     8696.1572    29482.0000      897.0000    29358.6211
     8700.5059    28583.0000      884.0000    28398.5664
     8704.8535    28317.0000      881.0000    28055.5625
     8709.2041    29129.0000      894.0000    29012.1758
     8713.5537    32904.0000      950.0000    32468.0898
     8717.9023    38338.0000     1026.0000    40327.0703
     8722.2666    52848.0000     1199.0000    55161.0391
     8726.6309    78245.0000     1465.0000    79405.9609
     8730.9951   114377.0000     1768.0000   114145.8750
     8735.3594   158772.0000     2096.0000   157637.0000
     8739.7236   211339.0000     2419.0000   204607.2500
     8744.1025   253563.0000     2659.0000   247297.4219
     8748.4668   271506.0000     2766.0000   277503.5312
     8752.8320   283836.0000     2823.0000   290529.2500
     8757.2119   281774.0000     2816.0000   286020.5312
     8761.5908   271718.0000     2767.0000   267590.4688
     8765.9707   241231.0000     2606.0000   240787.1562
     8770.3506   215135.0000     2460.0000   210926.9375
     8774.7451   187502.0000     2288.0000   181725.2344
     8779.1406   155675.0000     2092.0000   155362.5625
     8783.5215   132480.0000     1930.0000   132655.0781
     8787.9150   111316.0000     1764.0000   113420.1875
     8792.3096    93878.0000     1627.0000    97351.2500
     8796.7051    82988.0000     1526.0000    83989.4219
     8801.0996    69545.0000     1403.0000    72902.6250
     8805.4941    60915.0000     1311.0000    63706.5586
     8809.9053    55747.0000     1256.0000    56053.9062
     8814.3154    49123.0000     1181.0000    49713.4141
     8818.7256    43557.0000     1114.0000    44458.7266
     8823.1357    40657.0000     1078.0000    40103.7070
     8827.5459    37170.0000     1032.0000    36494.0586
     8831.9561    36190.0000     1020.0000    33501.9531
     8836.3662    33797.0000      988.0000    31021.4824
     8840.7920    29926.0000      928.0000    28958.2930
     8845.2168    28061.0000      904.0000    27248.9648
     8849.6279    26772.0000      884.0000    25836.2734
     8854.0537    25953.0000      869.0000    24661.1152
     8858.4785    24638.0000      851.0000    23687.2520
     8862.9043    23485.0000      830.0000    22879.9316
     8867.3457    23205.0000      826.0000    22209.0391
     8871.7861    21910.0000      804.0000    21654.7910
     8876.2266    21918.0000      805.0000    21199.5605
     8880.6523    22334.0000      817.0000    20840.6914
     8885.0781    21174.0000      794.0000    20563.5625
     8889.5352    21387.0000      796.0000    20392.6406
     8893.9912    21126.0000      795.0000    20377.7656
     8898.4316    21398.0000      801.0000    20601.1016
     8902.8721    22128.0000      815.0000    21173.7422
     8907.3291    22311.0000      816.0000    22207.6270
     8911.7852    23729.0000      845.0000    23743.3652
     8916.2412    25805.0000      878.0000    25690.0820
     8920.6973    27209.0000      905.0000    27793.2031
     8925.1533    30098.0000      949.0000    29681.1523
     8929.6250    31269.0000      968.0000    30989.4629
     8934.0967    30496.0000      957.0000    31497.5664
     8938.5527    29942.0000      953.0000    31202.7480
     8943.0088    30082.0000      953.0000    30284.9023
     8947.4805    29974.0000      952.0000    28996.7969
     8951.9668    28448.0000      926.0000    27580.5117
     8956.4541    27187.0000      910.0000    26213.3652
     8960.9258    24111.0000      860.0000    24991.6992
     8965.3975    23786.0000      855.0000    23940.8086
     8969.8838    23281.0000      844.0000    23053.8340
     8974.3711    23210.0000      847.0000    22315.4570
     8978.8574    22169.0000      827.0000    21703.6875
     8983.3438    21497.0000      818.0000    21197.4707
     8987.8301    20985.0000      807.0000    20778.7656
     8992.3330    19263.0000      775.0000    20431.2832
     8996.8350    20799.0000      806.0000    20144.1016
     9001.3369    19915.0000      790.0000    19906.6523
     9005.8389    19354.0000      780.0000    19709.0469
     9010.3408    19750.0000      789.0000    19546.6133
     9014.8438    18948.0000      774.0000    19412.1816
     9019.3457    18960.0000      775.0000    19300.9434
     9023.8477    18828.0000      774.0000    19208.8457
     9028.3652    19294.0000      781.0000    19132.3398
     9032.8828    18361.0000      766.0000    19069.0137
     9037.4004    18210.0000      761.0000    19016.5918
     9041.9170    18792.0000      777.0000    18973.2070
     9046.4346    18176.0000      763.0000    18937.2949
     9050.9678    18721.0000      774.0000    18907.5059
     9055.4854    17793.0000      759.0000    18882.9922
     9060.0029    18458.0000      771.0000    18862.7793
     9064.5361    18551.0000      774.0000    18846.1074
     9069.0684    18802.0000      780.0000    18832.4707
     9073.6016    20088.0000      806.0000    18821.3828
     9078.1338    19185.0000      789.0000    18812.4570
     9082.6816    18664.0000      777.0000    18804.4199
     9087.2285    18141.0000      770.0000    18798.9082
     9091.7627    18701.0000      783.0000    18794.7852
     9096.3105    18654.0000      780.0000    18791.8574
     9100.8584    18411.0000      779.0000    18790.0059
     9105.4072    18678.0000      782.0000    18789.1309
     9109.9707    18308.0000      776.0000    18789.1543
     9114.5186    18707.0000      787.0000    18790.0273
     9119.0664    18813.0000      788.0000    18791.7148
     9123.6299    19872.0000      810.0000    18794.2070
     9128.1934    20299.0000      819.0000    18797.5078
     9132.7568    19151.0000      797.0000    18801.6328
     9137.3193    19072.0000      797.0000    18806.6211
     9141.8984    19038.0000      794.0000    18812.5391
     9146.4775    18031.0000      778.0000    18819.4473
     9151.0410    18567.0000      790.0000    18827.4043
     9155.6191    19272.0000      802.0000    18836.5742
     9160.1982    19761.0000      815.0000    18847.0781
     9164.7764    17577.0000      770.0000    18859.0742
     9169.3555    18400.0000      790.0000    18878.1211
     9173.9336    18092.0000      782.0000    18899.1191
     9178.5283    17858.0000      778.0000    18922.4648
     9183.1221    19165.0000      806.0000    18948.4590
     9187.7158    18893.0000      801.0000    18977.5781
     9192.3105    17945.0000      783.0000    19009.5742
     9196.9043    18922.0000      804.0000    19046.8633
     9201.4980    18617.0000      799.0000    19089.5703
     9206.0928    17890.0000      785.0000    19139.0371
     9210.7021    18602.0000      798.0000    19197.5293
     9215.3105    19365.0000      817.0000    19268.8320
     9219.9199    20027.0000      828.0000    19362.1328
     9224.5293    19289.0000      817.0000    19501.4512
     9229.1387    20030.0000      830.0000    19750.7422
     9233.7480    19352.0000      820.0000    20271.0840
     9238.3574    19595.0000      824.0000    21430.9258
     9242.9824    22375.0000      879.0000    23987.5664
     9247.6064    27195.0000      967.0000    29250.3945
     9252.2314    36598.0000     1118.0000    39131.3984
     9256.8564    52128.0000     1332.0000    55792.8047
     9261.4805    80224.0000     1651.0000    80768.3359
     9266.1201   115645.0000     1978.0000   113873.0703
     9270.7607   154503.0000     2298.0000   151900.4688
     9275.3857   193726.0000     2580.0000   188882.8750
     9280.0254   223429.0000     2768.0000   218198.2344
     9284.6650   233913.0000     2845.0000   234401.8281
     9289.3057   233542.0000     2837.0000   235718.4844
     9293.9609   221882.0000     2767.0000   224032.2812
     9298.6006   206082.0000     2677.0000   203695.8125
     9303.2402   182760.0000     2514.0000   179379.7031
     9307.8965   157265.0000     2333.0000   154724.9219
     9312.5508   130315.0000     2125.0000   132095.1719
     9317.2061   110575.0000     1959.0000   112438.7969
     9321.8613    93398.0000     1802.0000    95888.6875
     9326.5322    78515.0000     1649.0000    82128.2031
     9331.2031    66631.0000     1527.0000    70809.9219
     9335.8584    60309.0000     1455.0000    61556.0312
     9340.5283    52969.0000     1362.0000    53950.1172
     9345.1992    44707.0000     1259.0000    47724.1250
     9349.8691    44888.0000     1258.0000    42634.6250
     9354.5400    41246.0000     1213.0000    38479.8594
     9359.2109    36770.0000     1144.0000    35104.2812
     9363.8965    34473.0000     1110.0000    32391.3203
     9368.5820    31423.0000     1062.0000    30312.3750
     9373.2676    29892.0000     1038.0000    28948.1172
     9377.9541    29579.0000     1034.0000    28589.6895
     9382.6406    30720.0000     1054.0000    29850.0449
     9387.3262    33905.0000     1107.0000    33722.3984
     9392.0273    42911.0000     1240.0000    41494.0703
     9396.7285    54272.0000     1398.0000    54253.1914
     9401.4141    74683.0000     1639.0000    72145.3359
     9406.1152    96921.0000     1862.0000    93937.7109
     9410.8320   115670.0000     2036.0000   116554.9844
     9415.5332   132042.0000     2186.0000   135711.0781
     9420.2344   145591.0000     2291.0000   147804.5156
     9424.9512   146378.0000     2300.0000   151026.4219
     9429.6680   142075.0000     2268.0000   145863.9688
     9434.3838   134078.0000     2206.0000   134605.3125
     9439.1006   121433.0000     2101.0000   120137.2656
     9443.8174   107633.0000     1980.0000   104968.7734
     9448.5332    92908.0000     1842.0000    90744.9609
     9453.2500    80769.0000     1720.0000    78246.6406
     9457.9824    68312.0000     1579.0000    67635.7969
     9462.7139    57913.0000     1462.0000    58834.5508
     9467.4453    51059.0000     1371.0000    51598.6328
     9472.1777    46369.0000     1313.0000    45670.6602
     9476.9092    39829.0000     1217.0000    40822.7461
     9481.6562    37513.0000     1183.0000    36847.0781
     9486.4033    35522.0000     1153.0000    33598.9141
     9491.1514    30814.0000     1078.0000    30944.6152
     9495.8975    29986.0000     1065.0000    28776.7930
     9500.6445    28210.0000     1035.0000    27005.0098
     9505.3926    26756.0000     1010.0000    25556.8281
     9510.1396    24651.0000      972.0000    24373.4805
     9514.8867    24730.0000      975.0000    23406.1836
     9519.6494    22581.0000      931.0000    22613.0098
     9524.4111    22331.0000      931.0000    21964.9766
     9529.1738    22279.0000      928.0000    21435.1992
     9533.9365    22091.0000      928.0000    21002.1094
     9538.6982    21176.0000      908.0000    20648.0488
     9543.4766    22140.0000      928.0000    20357.5488
     9548.2539    20956.0000      905.0000    20120.1094
     9553.0166    21446.0000      919.0000    19926.4863
     9557.7793    20926.0000      907.0000    19768.0254
     9562.5723    20866.0000      904.0000    19637.5742
     9567.3652    19728.0000      884.0000    19530.9199
     9572.1426    18775.0000      864.0000    19443.9688
     9576.9209    19313.0000      877.0000    19372.8164
     9581.7139    18594.0000      860.0000    19314.4531
     9586.5068    18861.0000      869.0000    19266.5371
     9591.2998    20144.0000      895.0000    19227.5859
     9596.0938    20455.0000      905.0000    19195.7988
     9600.8867    20450.0000      904.0000    19169.9004
     9605.6943    20706.0000      910.0000    19148.7754
     9610.5029    20961.0000      916.0000    19131.6465
     9615.2959    21622.0000      934.0000    19117.8477
     9620.0889    19707.0000      892.0000    19106.7461
     9624.9131    19613.0000      888.0000    19097.8203
     9629.7363    20138.0000      903.0000    19090.7637
     9634.5449    19672.0000      895.0000    19085.2656
     9639.3535    19697.0000      896.0000    19081.0391
     9644.1777    19070.0000      881.0000    19077.8672
     9649.0010    18324.0000      868.0000    19075.5879
     9653.8252    17790.0000      854.0000    19074.0527
     9658.6484    17948.0000      862.0000    19068.3555
     9663.4727    19272.0000      889.0000    19068.0254
     9668.3115    19930.0000      905.0000    19069.1484
     9673.1504    19981.0000      907.0000    19069.6621
     9677.9893    19186.0000      891.0000    19070.5020
     9682.8281    19025.0000      888.0000    19071.6191
     9687.6670    18280.0000      873.0000    19072.9746
     9692.5059    19456.0000      900.0000    19074.5391
     9697.3447    18819.0000      887.0000    19076.2832
     9702.1992    19442.0000      899.0000    19078.1914
     9707.0537    20258.0000      920.0000    19080.2383
     9711.9082    18822.0000      887.0000    19082.4082
     9716.7627    18680.0000      888.0000    19084.6875
     9721.6172    18609.0000      885.0000    19087.0645
     9726.4863    18304.0000      879.0000    19089.5391
     9731.3564    19113.0000      898.0000    19092.0918
     9736.2109    19357.0000      907.0000    19094.7109
     9741.0645    18487.0000      886.0000    19097.3906
     9745.9502    18770.0000      891.0000    19100.1523
     9750.8350    18463.0000      888.0000    19102.9668
     9755.7041    19383.0000      909.0000    19105.8262
     9760.5742    17710.0000      873.0000    19126.9219
     9765.4590    18772.0000      895.0000    19109.1816
     9770.3447    19739.0000      920.0000    19091.4824
     9775.2285    18887.0000      900.0000    19073.8418
     9780.1143    18424.0000      893.0000    19056.2363
     9784.9990    18088.0000      884.0000    19038.6758
     9789.8994    17448.0000      870.0000    19021.1035
     9794.7998    17748.0000      878.0000    19003.5684
     9799.6992    17299.0000      869.0000    18986.0742
     9804.5996    18723.0000      903.0000    18968.6172
     9809.5000    19739.0000      926.0000    18951.1934
     9814.4004    17471.0000      876.0000    18933.8066
     9819.3008    18118.0000      892.0000    18916.4531
     9824.2012    18218.0000      895.0000    18899.1367
     9829.1172    17382.0000      874.0000    18881.7949
     9834.0322    17184.0000      873.0000    18864.4941
     9838.9482    18600.0000      905.0000    18847.2188
     9843.8789    18852.0000      911.0000    18829.9238
     9848.7939    19270.0000      925.0000    18812.4980
     9853.7100    18054.0000      895.0000    18795.3223
     9858.6416    18437.0000      905.0000    18778.1250
     9863.5723    18147.0000      900.0000    18760.9648
     9868.5029    19800.0000      938.0000    18743.8340
     9873.4336    18403.0000      908.0000    18726.7383
     9878.3799    19151.0000      923.0000    18709.6191
     9883.3262    18862.0000      921.0000    18692.5352
     9888.2568    17790.0000      897.0000    18675.5371
     9893.2031    18446.0000      910.0000    18658.5215
     9898.1494    19952.0000      949.0000    18641.5391
     9903.0957    18185.0000      907.0000    18624.5918
     9908.0576    19153.0000      930.0000    18607.6289
     9913.0039    18875.0000      928.0000    18590.7539
     9917.9502    18905.0000      927.0000    18573.9180
     9922.9111    18358.0000      915.0000    18557.0723
     9927.8721    19037.0000      932.0000    18540.2656
     9932.8340    18211.0000      914.0000    18523.4980
     9937.8105    16745.0000      877.0000    18506.7246
     9942.7881    17739.0000      905.0000    18489.9902
     9947.7500    17134.0000      892.0000    18473.3555
     9952.7266    17822.0000      907.0000    18456.7188
     9957.7031    19131.0000      941.0000    18440.1309
     9962.6797    18461.0000      924.0000    18423.5957
     9967.6719    17806.0000      910.0000    18407.0645
     9972.6484    17624.0000      909.0000    18390.6406
     9977.6260    18724.0000      934.0000    18374.2715
     9982.6182    19053.0000      942.0000    18357.9141
     9987.6104    18499.0000      931.0000    18341.6250
     9992.6025    17323.0000      904.0000    18325.4043
     9997.5947    17850.0000      918.0000    18309.2559
    10002.6016    17823.0000      915.0000    18293.1348
    10007.6094    18527.0000      936.0000    18277.0938
    10012.6016    17755.0000      919.0000    18261.1875
    10017.6094    18731.0000      940.0000    18245.3184
    10022.6162    17820.0000      923.0000    18229.5508
    10027.6240    18098.0000      928.0000    18213.8809
    10032.6465    18247.0000      933.0000    18198.2734
    10037.6699    18418.0000      938.0000    18182.7793
    10042.6924    19093.0000      955.0000    18167.4141
    10047.7158    19789.0000      972.0000    18152.1758
    10052.7383    18606.0000      946.0000    18137.0840
    10057.7607    18200.0000      937.0000    18122.1426
    10062.7842    18177.0000      938.0000    18107.3633
    10067.8066    18274.0000      942.0000    18092.7617
    10072.8447    18364.0000      942.0000    18078.3066
    10077.8828    16782.0000      908.0000    18064.0566
    10082.9209    17764.0000      930.0000    18082.1699
    10087.9736    19211.0000      966.0000    18100.5801
    10093.0117    17359.0000      926.0000    18119.2012
    10098.0508    17775.0000      934.0000    18138.1172
    10103.1035    17244.0000      922.0000    18157.4023
    10108.1572    19181.0000      970.0000    18177.0410
    10113.2109    18432.0000      954.0000    18197.0664
    10118.2637    18098.0000      947.0000    18217.5137
    10123.3174    18377.0000      955.0000    18238.4395
    10128.3857    17782.0000      939.0000    18259.9531
    10133.4541    18663.0000      964.0000    18282.0645
    10138.5234    19224.0000      976.0000    18304.8457
    10143.5918    18703.0000      968.0000    18328.3809
    10148.6602    18678.0000      966.0000    18352.7793
    10153.7285    18667.0000      970.0000    18378.1641
    10158.7979    18730.0000      970.0000    18404.7012
    10163.8818    19031.0000      978.0000    18432.6738
    10168.9668    18356.0000      963.0000    18462.3223
    10174.0508    19702.0000      997.0000    18494.1953
    10179.1348    19783.0000     1000.0000    18529.6094
    10184.2334    19339.0000      988.0000    18572.1152
    10189.3330    18674.0000      976.0000    18630.7051
    10194.4170    18492.0000      973.0000    18727.2598
    10199.5166    18967.0000      983.0000    18911.0645
    10204.6152    18390.0000      973.0000    19274.9551
    10209.7148    20112.0000     1013.0000    19969.4824
    10214.8301    22192.0000     1062.0000    21195.6562
    10219.9287    26112.0000     1151.0000    23126.9941
    10225.0283    26878.0000     1165.0000    25844.0039
    10230.1436    29419.0000     1218.0000    29194.3281
    10235.2578    30605.0000     1243.0000    32733.7656
    10240.3730    35384.0000     1334.0000    35838.6328
    10245.5029    37486.0000     1369.0000    37917.0938
    10250.6328    36894.0000     1364.0000    38629.1367
    10255.7471    37870.0000     1383.0000    38021.5430
    10260.8770    39157.0000     1404.0000    36428.7930
    10266.0068    33585.0000     1309.0000    34311.3203
    10271.1367    33539.0000     1306.0000    32088.7422
    10276.2822    32114.0000     1281.0000    30055.0391
    10281.4277    30034.0000     1243.0000    28418.5488
    10286.5576    27758.0000     1202.0000    27389.4570
    10291.6885    27086.0000     1187.0000    27365.3359
    10296.8486    27862.0000     1200.0000    29247.9961
    10302.0088    31320.0000     1275.0000    34775.1953
    10307.1543    42326.0000     1475.0000    46698.2930
    10312.2998    61301.0000     1768.0000    68593.5000
    10317.4600    99387.0000     2240.0000   103822.8750
    10322.6201   160151.0000     2853.0000   153305.4219
    10327.7812   221835.0000     3354.0000   213695.4844
    10332.9424   281861.0000     3802.0000   276624.0000
    10338.1025   336769.0000     4155.0000   330543.5312
    10343.2783   365970.0000     4340.0000   364937.4062
    10348.4541   372650.0000     4386.0000   374133.9062
    10353.6299   354005.0000     4278.0000   359438.6250
    10358.8057   327318.0000     4116.0000   327310.3750
    10363.9814   288264.0000     3864.0000   286097.5000
    10369.1572   244160.0000     3557.0000   243114.1562
    10374.3486   201605.0000     3225.0000   203039.5781
    10379.5400   167779.0000     2953.0000   168283.8750
    10384.7158   137202.0000     2674.0000   139409.6562
    10389.9072   113480.0000     2429.0000   115789.6719
    10395.1143    94604.0000     2223.0000    96678.3438
    10400.3057    78988.0000     2042.0000    81374.9844
    10405.4971    66961.0000     1880.0000    69099.5391
    10410.7031    60335.0000     1789.0000    59233.1680
    10415.9102    52942.0000     1681.0000    51327.6562
    10421.1162    44873.0000     1554.0000    44995.6836
    10426.3223    39825.0000     1469.0000    39922.7578
    10431.5449    35583.0000     1389.0000    35846.6875
    10436.7666    34306.0000     1371.0000    32583.4727
    10441.9727    31286.0000     1314.0000    29977.2246
    10447.1953    29601.0000     1278.0000    27882.5742
    10452.4316    26431.0000     1213.0000    26201.0117
    10457.6533    26438.0000     1218.0000    24858.2695
    10462.8760    22129.0000     1120.0000    23782.5020
    10468.1133    24421.0000     1174.0000    22918.6543
    10473.3506    24184.0000     1170.0000    22227.1875
    10478.5869    22929.0000     1143.0000    21673.8848
    10483.8242    20270.0000     1081.0000    21231.0938
    10489.0615    19527.0000     1064.0000    20876.9766
    10494.2988    20798.0000     1097.0000    20593.9668
    10499.5508    20322.0000     1084.0000    20367.4414
    10504.8037    19963.0000     1080.0000    20186.9121
    10510.0566    20021.0000     1080.0000    20043.3438
    10515.3086    19454.0000     1070.0000    19929.4883
    10520.5615    21568.0000     1120.0000    19839.4844
    10525.8291    21289.0000     1115.0000    19768.5254
    10531.0967    19283.0000     1067.0000    19713.1250
    10536.3652    18509.0000     1049.0000    19670.2656
    10541.6328    18200.0000     1042.0000    19637.5449
    10546.9004    20029.0000     1091.0000    19579.5293
    10552.1680    19789.0000     1086.0000    19528.1484
    10557.4512    18770.0000     1059.0000    19482.0293
    10562.7344    19431.0000     1080.0000    19440.3145
    10568.0020    19617.0000     1087.0000    19402.3008
    10573.2852    18767.0000     1063.0000    19367.1094
    10578.5830    18358.0000     1054.0000    19334.2402
    10583.8672    19458.0000     1087.0000    19303.4434
    10589.1504    20702.0000     1117.0000    19274.2891
    10594.4482    20803.0000     1121.0000    19246.4199
    10599.7471    19830.0000     1098.0000    19219.6855
    10605.0449    18055.0000     1054.0000    19193.9082
    10610.3438    18061.0000     1055.0000    19168.9297
    10615.6582    18643.0000     1069.0000    19144.5625
    10620.9717    19006.0000     1083.0000    19120.7793
    10626.2852    18926.0000     1080.0000    19097.4941
    10631.5986    17177.0000     1038.0000    19074.6426
    10636.9121    17927.0000     1057.0000    19052.1602
    10642.2256    19625.0000     1106.0000    19030.0059
    10647.5400    18618.0000     1078.0000    19008.1348
    10652.8691    18816.0000     1085.0000    18986.4590
    10658.1982    19131.0000     1094.0000    18965.0117
    10663.5264    17999.0000     1066.0000    18943.7715
    10668.8555    19281.0000     1101.0000    18922.7129
    10674.1855    19307.0000     1104.0000    18901.8184
    10679.5293    19890.0000     1117.0000    18881.0254
    10684.8740    20553.0000     1139.0000    18860.3750
    10690.2188    18923.0000     1095.0000    18839.8535
    10695.5635    19833.0000     1124.0000    18819.4570
    10700.9072    18844.0000     1096.0000    18799.1797
    10706.2666    18310.0000     1084.0000    18778.9531
    10711.6113    18632.0000     1097.0000    18758.8867
    10716.9551    19741.0000     1125.0000    18738.9238
    10722.3145    18797.0000     1101.0000    18719.0020
    10727.6748    18660.0000     1099.0000    18699.1660
    10733.0498    17945.0000     1079.0000    18679.3730
    10738.4248    18777.0000     1106.0000    18659.6660
    10743.7842    19033.0000     1114.0000    18640.1113
    10749.1592    17425.0000     1069.0000    18620.5879
    10754.5342    19363.0000     1126.0000    18601.1562
    10759.9092    19172.0000     1119.0000    18581.8184
    10765.2842    17316.0000     1074.0000    18562.5781
    10770.6592    18197.0000     1096.0000    18543.4375
    10776.0498    18579.0000     1108.0000    18524.3496
    10781.4395    17498.0000     1080.0000    18505.3789
    10786.8301    19669.0000     1140.0000    18486.5293
    10792.2207    18804.0000     1119.0000    18467.8125
    10797.6270    17803.0000     1090.0000    18449.1914
    10803.0322    17895.0000     1097.0000    18430.7383
    10808.4219    19462.0000     1141.0000    18412.5273
    10813.8281    20291.0000     1162.0000    18394.4707
    10819.2334    19339.0000     1141.0000    18376.6699
    10824.6396    19151.0000     1135.0000    18359.1562
    10830.0605    18042.0000     1106.0000    18341.9375
    10835.4814    17144.0000     1083.0000    18325.1426
    10840.9023    19122.0000     1139.0000    18341.7793
    10846.3232    17966.0000     1109.0000    18359.0898
    10851.7441    19159.0000     1143.0000    18377.3867
    10857.1650    18894.0000     1137.0000    18397.4336
    10862.5859    19409.0000     1153.0000    18421.3516
    10868.0215    17841.0000     1108.0000    18455.0977
    10873.4580    17975.0000     1117.0000    18513.6055
    10878.8945    19166.0000     1148.0000    18630.8867
    10884.3311    19769.0000     1169.0000    18874.0645
    10889.7666    17256.0000     1098.0000    19355.1816
    10895.2188    19852.0000     1171.0000    20230.0156
    10900.6699    21747.0000     1222.0000    21651.4922
    10906.1211    24928.0000     1303.0000    23694.0488
    10911.5732    26474.0000     1342.0000    26262.8379
    10917.0244    29533.0000     1414.0000    29027.0918
    10922.4756    31022.0000     1449.0000    31501.4180
    10927.9434    34975.0000     1530.0000    33197.1055
    10933.4102    31791.0000     1469.0000    33806.6211
    10938.8770    30969.0000     1449.0000    33331.1016
    10944.3438    31930.0000     1476.0000    32024.0391
    10949.8105    32402.0000     1484.0000    30253.3008
    10955.2920    28256.0000     1394.0000    28356.2656
    10960.7744    27113.0000     1370.0000    26574.8848
    10966.2568    26724.0000     1362.0000    25028.4551
    10971.7393    24422.0000     1309.0000    23747.4766
    10977.2217    21581.0000     1239.0000    22713.8887
    10982.7031    21719.0000     1244.0000    21891.2344
    10988.2012    19436.0000     1181.0000    21238.8379
    10993.6982    19688.0000     1193.0000    20725.0039
    10999.1963    21465.0000     1239.0000    20321.0410
    11004.6934    21498.0000     1245.0000    20004.2246
    11010.1914    21078.0000     1232.0000    19756.2676
    11015.7041    19953.0000     1204.0000    19562.3867
    11021.2012    20706.0000     1229.0000    19412.2227
    11026.6992    20897.0000     1232.0000    19296.1367
    11032.2266    18916.0000     1177.0000    19206.6328
    11037.7549    19642.0000     1202.0000    19138.6758
    11043.2686    18948.0000     1184.0000    19087.8867
    11048.7812    20209.0000     1221.0000    19050.5215
    11054.3086    19475.0000     1199.0000    19023.7168
    11059.8369    19071.0000     1192.0000    19005.3496
    11065.3652    17076.0000     1134.0000    18993.6719
    11070.8936    17349.0000     1147.0000    18987.2852
    11076.4209    18526.0000     1179.0000    19003.8086
    11081.9648    20968.0000     1248.0000    19005.2656
    11087.5078    18687.0000     1187.0000    19009.3848
    11093.0518    17286.0000     1148.0000    19015.6172
    11098.5947    19259.0000     1206.0000    19023.5312
    11104.1533    18062.0000     1170.0000    19032.8125
    11109.7129    19001.0000     1202.0000    19043.1719
    11115.2568    19767.0000     1225.0000    19054.3555
    11120.8154    19576.0000     1218.0000    19066.2598
    11126.3730    20343.0000     1244.0000    19078.7188
    11131.9316    20433.0000     1245.0000    19091.6270
    11137.5068    16638.0000     1138.0000    19104.9414
    11143.0811    17035.0000     1152.0000    19118.5527
    11148.6543    17851.0000     1177.0000    19132.4102
    11154.2285    19718.0000     1232.0000    19146.4727
    11159.8027    18778.0000     1207.0000    19160.7070
    11165.3770    19111.0000     1218.0000    19175.0898
    11170.9502    19114.0000     1220.0000    19189.5918
    11176.5400    18949.0000     1214.0000    19204.2480
    11182.1289    19890.0000     1245.0000    19218.9980
    11187.7188    17930.0000     1188.0000    19233.8379
    11193.3232    19323.0000     1229.0000    19248.7969
    11198.9131    18789.0000     1219.0000    19263.7891
    11204.5029    19441.0000     1236.0000    19278.8496
    11210.1074    17857.0000     1192.0000    19294.0195
    11215.7119    19655.0000     1246.0000    19309.2520
    11221.3320    20088.0000     1256.0000    19324.5918
    11226.9521    18075.0000     1203.0000    19339.9961
    11232.5566    17662.0000     1193.0000    19355.0469
    11238.1768    18700.0000     1222.0000    19370.5840
    11243.7969    18369.0000     1217.0000    19386.1875
    11249.4170    20349.0000     1272.0000    19401.8574
    11255.0371    19863.0000     1263.0000    19417.5977
    11260.6562    19759.0000     1259.0000    19433.4082
    11266.2920    18684.0000     1230.0000    19449.3418
    11271.9277    17495.0000     1196.0000    19465.3555
    11277.5635    18710.0000     1234.0000    19481.4551
    11283.1982    18543.0000     1230.0000    19497.6387
    11288.8330    17945.0000     1215.0000    19513.9160
    11294.4834    18359.0000     1225.0000    19530.3418
    11300.1338    18854.0000     1245.0000    19546.8711
    11305.7842    20984.0000     1303.0000    19563.5176
    11311.4355    18486.0000     1237.0000    19580.2852
    11317.0859    17820.0000     1216.0000    19597.1816
    11322.7520    18896.0000     1249.0000    19614.2656
    11328.4180    19433.0000     1267.0000    19631.5020
    11334.0840    19059.0000     1258.0000    19642.1191
    11339.7500    18977.0000     1257.0000    19659.7754
    11345.4160    19514.0000     1274.0000    19677.6230
    11351.0820    18793.0000     1255.0000    19695.6797
    11356.7637    17420.0000     1212.0000    19714.0176
    11362.4443    18733.0000     1257.0000    19727.9766
    11368.1260    18960.0000     1262.0000    19742.2129
    11373.8066    19637.0000     1287.0000    19756.7539
    11379.4883    19052.0000     1268.0000    19771.6367
    11385.1855    19700.0000     1288.0000    19786.9395
    11390.8818    18925.0000     1268.0000    19802.6602
    11396.5781    20825.0000     1324.0000    19818.8555
    11402.2744    20613.0000     1320.0000    19835.5801
    11407.9707    20690.0000     1324.0000    19852.9102
    11413.6680    21019.0000     1335.0000    19870.9297
    11419.3799    20032.0000     1305.0000    19889.7812
    11425.0918    18727.0000     1272.0000    19909.5430
    11430.8037    18636.0000     1268.0000    19930.3555
    11436.5156    19184.0000     1289.0000    19952.3926
    11442.2275    20493.0000     1326.0000    19975.8770
    11447.9541    19905.0000     1311.0000    20001.1387
    11453.6816    20311.0000     1324.0000    20028.4746
    11459.4092    20628.0000     1335.0000    20058.3262
    11465.1357    20451.0000     1332.0000    20091.3242
    11470.8633    19380.0000     1303.0000    20128.5469
    11476.6055    19752.0000     1312.0000    20172.3750
    11482.3486    20393.0000     1336.0000    20228.7754
    11488.0908    20810.0000     1346.0000    20314.7754
    11493.8330    22372.0000     1396.0000    20476.5664
    11499.5752    24130.0000     1442.0000    20827.6719
    11505.3330    24029.0000     1441.0000    21616.6055
    11511.0762    25249.0000     1480.0000    23298.4258
    11516.8184    30586.0000     1612.0000    26577.1152
    11522.5918    37221.0000     1763.0000    32356.7656
    11528.3652    45329.0000     1942.0000    41343.1602
    11534.1230    55530.0000     2141.0000    53555.4766
    11539.8809    69157.0000     2382.0000    67961.2734
    11545.6533    83293.0000     2602.0000    82381.2266
    11551.4268    85529.0000     2646.0000    93961.7422
    11557.2002    94806.0000     2779.0000   100362.1172
    11562.9883    94305.0000     2775.0000   100662.4062
    11568.7617    92994.0000     2767.0000    95569.1875
    11574.5352    86563.0000     2669.0000    86875.7344
    11580.3232    75851.0000     2506.0000    76595.0000
    11586.1123    66474.0000     2355.0000    66399.3438
    11591.9150    61923.0000     2273.0000    57259.8828
    11597.7188    51905.0000     2098.0000    49591.2227
    11603.5078    47511.0000     2015.0000    43410.5781
    11609.3115    41764.0000     1894.0000    38525.4805
    11615.1152    38164.0000     1823.0000    34688.2617
    11620.9189    36067.0000     1773.0000    31703.1680
    11626.7383    33163.0000     1708.0000    29385.8750
    11632.5566    30774.0000     1653.0000    27602.0410
    11638.3760    29705.0000     1629.0000    26239.1953
    11644.1953    25628.0000     1526.0000    25212.4883
    11650.0146    25498.0000     1524.0000    24461.2480
    11655.8340    24754.0000     1507.0000    23955.1562
    11661.6523    26990.0000     1568.0000    23720.3477
    11667.4873    28549.0000     1607.0000    23913.2461
    11673.3213    28157.0000     1603.0000    24983.3633
    11679.1562    29952.0000     1647.0000    27958.0469
    11685.0059    39191.0000     1866.0000    34834.9141
    11690.8398    50204.0000     2104.0000    48733.0938
    11696.6738    78322.0000     2600.0000    73651.2578
    11702.5234   117367.0000     3170.0000   113214.0000
    11708.3740   170911.0000     3820.0000   168148.0000
    11714.2393   231105.0000     4432.0000   234397.0938
    11720.1035   296130.0000     5036.0000   301970.9688
    11725.9531   352219.0000     5502.0000   357658.7812
    11731.8184   378557.0000     5699.0000   390292.8750
    11737.6836   391196.0000     5816.0000   394532.3125
    11743.5488   373274.0000     5673.0000   372901.6562
    11749.4287   335117.0000     5380.0000   333277.2188
    11755.3086   282372.0000     4943.0000   285372.4375
    11761.1895   247010.0000     4629.0000   237247.7500
    11767.0693   195844.0000     4129.0000   193893.7188
    11772.9502   156429.0000     3699.0000   157358.0625
    11778.8301   130938.0000     3394.0000   127780.5234
    11784.7109   109891.0000     3118.0000   104342.2656
    11790.6064    86979.0000     2780.0000    85926.6797
    11796.5020    73723.0000     2577.0000    71562.3828
    11802.3975    60118.0000     2334.0000    60376.0625
    11808.3086    48594.0000     2113.0000    51648.0547
    11814.2197    46011.0000     2063.0000    44858.4453
    11820.1309    39812.0000     1931.0000    39575.8750
    11826.0420    33548.0000     1787.0000    35464.8906
    11831.9531    33680.0000     1793.0000    32264.7559
    11837.8633    31278.0000     1736.0000    29773.2305
    11843.7744    29752.0000     1699.0000    27832.0703
    11849.7002    25965.0000     1597.0000    26316.1055
    11855.6270    24017.0000     1549.0000    25134.8477
    11861.5527    23200.0000     1524.0000    24214.3086
    11867.4785    21549.0000     1481.0000    23496.5117
    11873.4062    21266.0000     1471.0000    22936.4160
    11879.3477    20803.0000     1459.0000    22498.5020
    11885.2891    22537.0000     1513.0000    22156.9199
    11891.2305    21856.0000     1495.0000    21890.4648
    11897.1719    21498.0000     1487.0000    21682.6504
    11903.1289    21462.0000     1484.0000    21520.2891
    11909.0859    19641.0000     1434.0000    21393.9590
    11915.0273    20922.0000     1476.0000    21296.0762
    11920.9844    20608.0000     1465.0000    21220.0664
    11926.9570    20958.0000     1478.0000    21161.3613
    11932.9141    19645.0000     1443.0000    21116.5742
    11938.8711    20680.0000     1474.0000    21082.6660
    11944.8428    20342.0000     1465.0000    21057.0449
    11950.8145    21389.0000     1500.0000    21038.6582
    11956.8027    20995.0000     1486.0000    21025.8008
    11962.7900    19165.0000     1435.0000    21017.4570
    11968.7617    19452.0000     1446.0000    21012.7949
    11974.7500    20016.0000     1463.0000    21011.1309
    11980.7373    18263.0000     1413.0000    21011.9766
    11986.7256    19445.0000     1449.0000    21004.6699
    11992.7129    20044.0000     1474.0000    20999.1719
    11998.7002    20032.0000     1472.0000    20995.2441
    12004.7031    20193.0000     1479.0000    20992.7090
    12010.7051    19762.0000     1468.0000    20991.4473
    12016.7080    19927.0000     1475.0000    20991.3594
    12022.7266    21236.0000     1514.0000    20992.3945
    12028.7451    20909.0000     1510.0000    20994.5215
    12034.7471    20990.0000     1515.0000    20997.7188
    12040.7656    19039.0000     1452.0000    21002.0195
    12046.7988    20408.0000     1498.0000    21007.4766
    12052.8174    22423.0000     1566.0000    21014.1230
    12058.8359    20521.0000     1506.0000    21022.0625
    12064.8691    18343.0000     1438.0000    21031.4395
    12070.9023    19600.0000     1481.0000    21042.3984
    12076.9355    19839.0000     1491.0000    21055.1445
    12082.9697    22030.0000     1562.0000    21069.9492
    12089.0186    19144.0000     1470.0000    21087.2344
    12095.0664    20030.0000     1504.0000    21107.6016
    12101.1152    20792.0000     1527.0000    21132.4160
    12107.1641    19746.0000     1499.0000    21165.2324
    12113.2129    19035.0000     1475.0000    21215.9531
    12119.2773    20084.0000     1511.0000    21311.1250
    12125.3408    21790.0000     1567.0000    21513.6309
    12131.4053    22212.0000     1582.0000    21955.0137
    12137.4697    25748.0000     1689.0000    22868.7930
    12143.5332    26434.0000     1711.0000    24595.6328
    12149.5977    29193.0000     1791.0000    27516.8711
    12155.6768    32082.0000     1866.0000    31897.0977
    12161.7559    40186.0000     2075.0000    37625.0586
    12167.8359    45391.0000     2192.0000    44070.4062
    12173.9150    49490.0000     2291.0000    50128.3125
    12179.9951    52068.0000     2343.0000    54568.0664
    12186.0898    55646.0000     2421.0000    56524.0859
    12192.1846    52194.0000     2353.0000    55819.8359
    12198.2793    46912.0000     2242.0000    52972.8906
    12204.3740    48931.0000     2289.0000    48877.8320
    12210.4834    49029.0000     2289.0000    44446.8281
    12216.5938    45020.0000     2209.0000    40447.2344
    12222.7031    43187.0000     2165.0000    37516.7930
    12228.8135    39514.0000     2086.0000    36452.5664
    12234.9238    40674.0000     2112.0000    38658.3750
    12241.0488    46725.0000     2254.0000    46598.6172
    12247.1592    58648.0000     2516.0000    63775.1641
    12253.2695    91238.0000     3102.0000    94059.2266
    12259.4102   137979.0000     3788.0000   140066.8750
    12265.5508   202293.0000     4590.0000   200089.2812
    12271.6758   271278.0000     5317.0000   266753.1875
    12277.8018   341525.0000     5973.0000   328303.1875
    12283.9424   367649.0000     6191.0000   371950.3125
    12290.0977   381647.0000     6316.0000   388889.3438
    12296.2383   373708.0000     6273.0000   377959.5625
    12302.3789   349702.0000     6061.0000   345092.4062
    12308.5352   297671.0000     5599.0000   299554.8750
    12314.6914   248969.0000     5129.0000   250608.0469
    12320.8477   200661.0000     4615.0000   204775.3125
    12327.0029   161308.0000     4150.0000   165376.2656
    12333.1592   133750.0000     3791.0000   133235.4844
    12339.3301   107090.0000     3399.0000   107752.7812
    12345.5010    89846.0000     3135.0000    87920.3438
    12351.6729    71997.0000     2817.0000    72594.8594
    12357.8604    61715.0000     2623.0000    60761.2930
    12364.0312    51920.0000     2428.0000    51679.1250
    12370.2021    46405.0000     2303.0000    44687.5273
    12376.3887    44521.0000     2263.0000    39291.8711
    12382.5752    38251.0000     2114.0000    35138.0156
    12388.7773    35114.0000     2032.0000    31931.3711
    12394.9785    32708.0000     1977.0000    29461.7383
    12401.1650    32569.0000     1976.0000    27594.8320
    12407.3682    30979.0000     1930.0000    26125.0684
    12413.5850    28956.0000     1877.0000    24987.7852
    12419.7861    25496.0000     1783.0000    24110.8086
    12425.9893    24976.0000     1765.0000    23431.4570
    12432.2061    21530.0000     1660.0000    22903.4688
    12438.4229    23725.0000     1732.0000    22493.3379
    12444.6406    23371.0000     1723.0000    22173.9844
    12450.8574    24245.0000     1753.0000    21924.7383
    12457.0908    21877.0000     1677.0000    21729.1270
    12463.3232    22036.0000     1689.0000    21575.5645
    12469.5557    19137.0000     1591.0000    21454.5117
    12475.7881    19102.0000     1597.0000    21358.6660
    12482.0215    23043.0000     1724.0000    21282.3926
    12488.2686    19846.0000     1623.0000    21221.2539
    12494.5156    21592.0000     1683.0000    21172.0723
    12500.7637    20392.0000     1646.0000    21132.2422
    12507.0117    22650.0000     1722.0000    21099.7754
    12513.2598    20935.0000     1669.0000    21073.1113
    12519.5078    20992.0000     1673.0000    21051.0527
    12525.7715    21286.0000     1681.0000    21032.6230
    12532.0342    20961.0000     1677.0000    21017.1484
    12538.2969    21972.0000     1709.0000    21004.0586
    12544.5752    19734.0000     1637.0000    20992.8828
    12550.8535    19654.0000     1637.0000    20983.3027
    12557.1318    19038.0000     1618.0000    20975.0430
    12563.4111    20410.0000     1667.0000    20967.8828
    12569.6895    20600.0000     1676.0000    20961.6504
    12575.9678    21673.0000     1714.0000    20956.2090
    12582.2461    20493.0000     1677.0000    20951.4453
    12588.5410    23316.0000     1768.0000    20947.2637
    12594.8350    19653.0000     1654.0000    20943.6035
    12601.1279    19302.0000     1640.0000    20940.4062
    12607.4365    19403.0000     1646.0000    20935.9883
    12613.7461    20735.0000     1694.0000    20933.5938
    12620.0547    23171.0000     1776.0000    20931.5469
    12626.3643    22263.0000     1750.0000    20929.8184
    12632.6729    21738.0000     1735.0000    20928.3848
    12638.9824    20955.0000     1711.0000    20927.2246
    12645.3066    19900.0000     1674.0000    20926.3281
    12651.6309    20623.0000     1705.0000    20925.6816
    12657.9561    21842.0000     1744.0000    20925.2734
    12664.2803    21352.0000     1735.0000    20925.0977
    12670.6035    20339.0000     1699.0000    20925.1445
    12676.9443    18309.0000     1630.0000    20925.4141
    12683.2842    21048.0000     1728.0000    20925.9004
    12689.6230    22574.0000     1781.0000    20926.6016
    12695.9785    21575.0000     1746.0000    20927.5176
    12702.3340    19312.0000     1676.0000    20928.6465
    12708.6738    19702.0000     1692.0000    20929.9883
    12715.0283    20328.0000     1712.0000    20931.5469
    12721.3828    20984.0000     1741.0000    20933.3262
    12727.7383    20681.0000     1729.0000    20935.3301
    12734.1084    20488.0000     1725.0000    20937.5684
    12740.4785    23808.0000     1837.0000    20940.0410
    12746.8496    20858.0000     1742.0000    20942.7598
    12753.2197    20314.0000     1726.0000    20945.7305
    12759.5898    18506.0000     1665.0000    20948.9648
    12765.9766    19925.0000     1713.0000    20952.4805
    12772.3623    21746.0000     1782.0000    20956.2852
    12778.7480    21755.0000     1781.0000    20960.3945
    12785.1484    19517.0000     1707.0000    20964.8340
    12791.5342    17392.0000     1636.0000    20961.9922
    12797.9199    20165.0000     1734.0000    20977.5723
    12804.3213    19773.0000     1723.0000    20993.5703
    12810.7217    19244.0000     1707.0000    21009.9785
    12817.1230    23084.0000     1840.0000    21026.8223
    12823.5391    20870.0000     1764.0000    21044.1777
    12829.9551    20544.0000     1759.0000    21062.0410
    12836.3721    20178.0000     1745.0000    21080.4551
    12842.7881    20550.0000     1764.0000    21099.4609
    12849.2041    19285.0000     1718.0000    21119.1094
    12855.6357    19944.0000     1744.0000    21139.5117
    12862.0674    18988.0000     1712.0000    21160.6797
    12868.4990    22912.0000     1850.0000    21182.6914
    12874.9316    23243.0000     1863.0000    21205.6289
    12881.3633    22456.0000     1840.0000    21229.5781
    12887.8096    21632.0000     1810.0000    21254.7109
    12894.2559    20773.0000     1787.0000    21281.0898
    12900.7031    20307.0000     1769.0000    21308.8633
    12907.1504    19392.0000     1743.0000    21338.1797
    12913.5977    21072.0000     1801.0000    21369.2285
    12920.0596    21055.0000     1802.0000    21402.2949
    12926.5225    22698.0000     1861.0000    21437.5625
    12932.9844    22938.0000     1871.0000    21475.3145
    12939.4463    24185.0000     1915.0000    21515.8867
    12945.9082    23586.0000     1898.0000    21559.6836
    12952.3857    22077.0000     1845.0000    21607.2969
    12958.8633    23898.0000     1913.0000    21659.1875
    12965.3408    26050.0000     1980.0000    21716.0391
    12971.8340    23288.0000     1893.0000    21778.8301
    12978.3115    20573.0000     1807.0000    21848.2617
    12984.7891    21160.0000     1825.0000    21925.7051
    12991.2822    19865.0000     1782.0000    22012.8984
    12997.7900    22810.0000     1882.0000    22111.8125
    13004.2979    22194.0000     1868.0000    22224.7012
    13010.7910    23700.0000     1921.0000    22354.3906
    13017.2988    23842.0000     1924.0000    22505.7188
    13023.8076    21363.0000     1847.0000    22684.8965
    13030.3154    20783.0000     1824.0000    22904.1562
    13036.8389    21861.0000     1864.0000    23194.7168
    13043.3623    23078.0000     1908.0000    23643.3438
    13049.8857    25997.0000     2007.0000    24498.9590
    13056.4092    24816.0000     1971.0000    26415.8027
    13062.9326    27335.0000     2054.0000    30916.0430
    13069.4561    36717.0000     2334.0000    41057.8398
    13075.9951    53526.0000     2760.0000    62082.4766
    13082.5342    94799.0000     3614.0000   101093.4766
    13089.0732   159428.0000     4636.0000   165200.4219
    13095.6270   264595.0000     5952.0000   257872.5781
    13102.1660   385872.0000     7203.0000   373558.0312
    13108.7041   510687.0000     8281.0000   496718.6562
    13115.2588   623663.0000     9169.0000   604201.0625
    13121.8281   667565.0000     9479.0000   672721.6875
    13128.3975   677244.0000     9579.0000   689023.8750
    13134.9521   644308.0000     9351.0000   655035.6250
    13141.5215   581770.0000     8868.0000   584277.6875
    13148.0908   483987.0000     8110.0000   495242.5000
    13154.6602   405341.0000     7410.0000   404327.2812
    13161.2451   321379.0000     6607.0000   322001.8125
    13167.8291   252424.0000     5868.0000   253213.7188
    13174.4141   203261.0000     5280.0000   198426.9062
    13181.0000   157094.0000     4661.0000   155984.9531
    13187.5840   126143.0000     4196.0000   123584.8281
    13194.1689    93313.0000     3637.0000    98996.2344
    13200.7695    81498.0000     3408.0000    80344.9531
    13207.3838    68247.0000     3141.0000    66218.9531
    13213.9844    59966.0000     2969.0000    55563.6406
    13220.5840    47069.0000     2657.0000    47505.0781
    13227.1992    44255.0000     2587.0000    41393.5859
    13233.8154    41888.0000     2528.0000    36767.6289
    13240.4307    36096.0000     2371.0000    33264.4180
    13247.0459    32791.0000     2278.0000    30608.5938
    13253.6611    30668.0000     2216.0000    28593.0566
    13260.2920    30999.0000     2224.0000    27057.7070
    13266.9219    26682.0000     2096.0000    25890.9336
    13273.5527    24571.0000     2024.0000    25002.1543
    13280.1992    26389.0000     2086.0000    24322.6367
    13286.8447    26198.0000     2083.0000    23803.5273
    13293.4912    23491.0000     1994.0000    23405.9492
    13300.1377    23036.0000     1981.0000    23100.7520
    13306.7832    23424.0000     1997.0000    22865.8750
    13313.4297    25740.0000     2077.0000    22684.5508
    13320.0908    21072.0000     1915.0000    22543.9082
    13326.7529    23488.0000     2006.0000    22434.7520
    13333.4131    23555.0000     2006.0000    22349.8203
    13340.0898    23118.0000     1993.0000    22283.3945
    13346.7510    23959.0000     2029.0000    22231.5762
    13353.4131    22549.0000     1978.0000    22190.9805
    13360.0898    22055.0000     1963.0000    22159.1035
    13366.7812    17841.0000     1807.0000    22134.1133
    13373.4727    21149.0000     1936.0000    22107.0254
    13380.1504    23261.0000     2013.0000    22092.0625
    13386.8418    24894.0000     2066.0000    22080.5918
    13393.5332    23274.0000     2018.0000    22071.9824
    13400.2256    24429.0000     2055.0000    22065.7090
    13406.9326    25601.0000     2097.0000    22061.3613
    13413.6406    21877.0000     1971.0000    22058.6289
    13420.3477    25406.0000     2096.0000    22057.2578
    13427.0547    24689.0000     2074.0000    22057.0391
    13433.7617    21880.0000     1979.0000    22057.8125
    13440.4844    24376.0000     2064.0000    22059.4473
    13447.2070    25039.0000     2094.0000    22061.8359
    13453.9297    23777.0000     2048.0000    22064.8828
    13460.6523    24110.0000     2067.0000    22068.5176
    13467.3740    23751.0000     2052.0000    22072.6738
    13474.1123    19512.0000     1902.0000    22077.3105
    13480.8506    21723.0000     1985.0000    22082.3750
    13487.5889    23814.0000     2062.0000    22087.8223
    13494.3262    21013.0000     1965.0000    22093.6211
    13501.0791    21763.0000     1990.0000    22099.7559
    13507.8330    19075.0000     1898.0000    22106.1875
    13514.5859    15699.0000     1764.0000    22112.8926
    13521.3535    20358.0000     1946.0000    21992.1016
    13528.1074    19847.0000     1934.0000    21871.7871
    13534.8613    19105.0000     1904.0000    21751.6895
    13541.6289    20207.0000     1948.0000    21631.5508
    13548.3975    20604.0000     1965.0000    21511.5820
    13555.1807    22237.0000     2022.0000    21391.5293
    13561.9648    19444.0000     1927.0000    21271.6230
    13568.7334    20234.0000     1959.0000    21152.1465
    13575.5176    19093.0000     1914.0000    21032.5371
    13582.3174    18541.0000     1895.0000    20912.7891
    13589.1006    19958.0000     1956.0000    20793.4609
    13595.8848    19372.0000     1932.0000    20674.2344
    13602.6836    21115.0000     2000.0000    20554.8633
    13609.4980    21593.0000     2015.0000    20435.3223
    13616.3135    17772.0000     1878.0000    20315.8672
    13623.1113    18652.0000     1915.0000    20196.8145
    13629.9258    18682.0000     1914.0000    20077.5566
    13636.7412    19123.0000     1938.0000    19958.3711
    13643.5547    19129.0000     1937.0000    19839.2969
    13650.3838    19125.0000     1939.0000    19720.0273
    13657.2139    16674.0000     1846.0000    19600.8125
    13664.0439    19510.0000     1959.0000    19481.6641
    13670.8740    21382.0000     2031.0000    19362.5820
    13677.7041    20183.0000     1990.0000    19243.5645
    13684.5332    21474.0000     2040.0000    19124.6172
    13691.3779    19779.0000     1975.0000    19005.4570
    13698.2236    20463.0000     2008.0000    18886.3301
    13705.0684    20267.0000     1999.0000    18767.2734
    13711.9287    21077.0000     2032.0000    18647.9922
    13718.7891    20683.0000     2020.0000    18528.7578
    13725.6494    19985.0000     1997.0000    18409.5684
    13732.5098    21573.0000     2059.0000    18290.4180
    13739.3711    16926.0000     1883.0000    18171.2910
    13746.2461    14628.0000     1787.0000    18051.9668
    13753.1221    18598.0000     1955.0000    18108.6133
    13759.9980    14650.0000     1793.0000    18165.2949
    13766.8730    18753.0000     1966.0000    18222.0020
    13773.7490    18888.0000     1970.0000    18278.7480
    13780.6406    18939.0000     1975.0000    18335.6562
    13787.5312    18619.0000     1965.0000    18392.5840
    13794.4219    20189.0000     2029.0000    18449.5391
    13801.3135    20476.0000     2042.0000    18506.5312
    13808.2197    19718.0000     2012.0000    18563.6699
    13815.1260    18941.0000     1989.0000    18620.8340
    13822.0322    15963.0000     1869.0000    18678.0234
    13828.9541    17093.0000     1917.0000    18735.3613
    13835.8604    20629.0000     2063.0000    18792.5957
    13842.7666    16605.0000     1903.0000    18849.8496
    13849.6885    16335.0000     1895.0000    18907.2559
    13856.6250    21315.0000     2088.0000    18964.8008
    13863.5615    19188.0000     2015.0000    19022.3672
    13870.4834    21549.0000     2108.0000    19079.8281
    13877.4209    18130.0000     1975.0000    19137.4375
    13884.3574    18463.0000     1996.0000    19195.0566
    13891.2949    20179.0000     2061.0000    19252.6992
    13898.2471    19413.0000     2034.0000    19310.4805
    13905.1992    20903.0000     2094.0000    19368.2754
    13912.1514    19476.0000     2043.0000    19426.0859
    13919.1035    18238.0000     1997.0000    19483.9121
    13926.0557    22231.0000     2154.0000    19541.7500
    13933.0234    21118.0000     2111.0000    19599.7324
    13939.9912    20010.0000     2076.0000    19657.7266
    13946.9580    19496.0000     2055.0000    19715.7266
    13953.9414    19101.0000     2043.0000    19773.8750
    13960.9248    20214.0000     2089.0000    19832.0352
    13967.9072    20581.0000     2106.0000    19890.2012
    13974.8906    16940.0000     1965.0000    19948.3848
    13981.8740    17387.0000     1987.0000    19939.8164
    13988.8564    18704.0000     2043.0000    19931.2578
    13995.8535    19023.0000     2054.0000    19922.6934
    14002.8525    18981.0000     2060.0000    19914.1367
    14009.8506    19928.0000     2096.0000    19905.5898
    14016.8643    21967.0000     2177.0000    19897.0332
    14023.8770    19561.0000     2088.0000    19888.4844
    14030.8916    19890.0000     2105.0000    19879.9434
    14037.9053    18457.0000     2052.0000    19871.4121
    14044.9180    20890.0000     2150.0000    19862.8906
    14051.9316    20646.0000     2144.0000    19854.3730
    14058.9609    20504.0000     2137.0000    19845.8457
    14065.9893    21619.0000     2188.0000    19837.3281
    14073.0176    22692.0000     2227.0000    19828.8145
    14080.0615    19223.0000     2097.0000    19820.2910
    14087.1064    20681.0000     2158.0000    19811.7734
    14094.1504    18497.0000     2075.0000    19803.2617
    14101.1943    19848.0000     2132.0000    19794.7559
    14108.2383    18901.0000     2098.0000    19786.2578
    14115.2979    18253.0000     2071.0000    19777.7461
    14122.3574    22198.0000     2232.0000    19769.2422
    14129.4170    21203.0000     2193.0000    19760.7402
    14136.4766    22250.0000     2241.0000    19752.2441
    14143.5361    21511.0000     2212.0000    19743.7578
    14150.6113    20587.0000     2180.0000    19735.2539
    14157.6855    19557.0000     2143.0000    19726.7578
    14164.7607    18712.0000     2112.0000    19718.2656
    14171.8506    19958.0000     2161.0000    19709.7578
    14178.9404    19082.0000     2134.0000    19701.2578
    14186.0303    17823.0000     2082.0000    19692.7598
    14193.1211    19663.0000     2164.0000    19684.2676
    14200.2119    21751.0000     2244.0000    19675.7793
    14207.3164    18966.0000     2139.0000    19667.2754
    14214.4219    17264.0000     2072.0000    19658.7773
    14221.5273    20136.0000     2192.0000    19650.2832
    14228.6328    18774.0000     2141.0000    19641.7930
    14235.7529    21134.0000     2233.0000    19633.2891
    14242.8740    19067.0000     2160.0000    19624.7891
    14249.9941    19477.0000     2175.0000    19601.9863
    14257.1152    19081.0000     2167.0000    19593.6738
    14264.2363    16933.0000     2078.0000    19585.3594
    14271.3721    19833.0000     2200.0000    19577.0293
    14278.5078    21616.0000     2273.0000    19568.6992
    14285.6445    20774.0000     2244.0000    19560.3672
    14292.7959    23428.0000     2344.0000    19552.0195
    14299.9473    20946.0000     2258.0000    19543.6699
    14307.0986    20983.0000     2258.0000    19535.3223
    14314.2490    16417.0000     2079.0000    19526.9746
    14321.4014    17940.0000     2142.0000    19531.2617
    14328.5684    18392.0000     2164.0000    19535.5566
    14335.7354    20283.0000     2244.0000    19539.8516
    14342.9014    20347.0000     2251.0000    19544.1465
    14350.0674    19535.0000     2221.0000    19548.4414
    14357.2500    18911.0000     2195.0000    19552.7461
    14364.4316    18525.0000     2187.0000    19557.0508
    14371.6133    20544.0000     2267.0000    19561.3535
    14378.7959    16860.0000     2124.0000    19565.6582
    14385.9775    21485.0000     2312.0000    19569.9629
    14393.1748    18360.0000     2190.0000    19574.2773
    14400.3721    20454.0000     2278.0000    19578.5898
    14407.5693    21501.0000     2323.0000    19582.9043
    14414.7666    21227.0000     2316.0000    19587.2168
    14421.9785    17596.0000     2167.0000    19591.5391
    14429.1924    18544.0000     2215.0000    19595.8633
    14436.4043    20795.0000     2304.0000    19600.1855
    14443.6328    19788.0000     2268.0000    19604.5176
    14450.8604    17563.0000     2179.0000    19608.8496
    14458.0732    17173.0000     2171.0000    19613.1719
    14465.3008    19432.0000     2259.0000    19617.5039
    14472.5439    19173.0000     2256.0000    19621.8438
    14479.7715    18788.0000     2244.0000    19626.1758
    14487.0156    23954.0000     2447.0000    19630.5176
    14494.2588    22882.0000     2414.0000    19634.8574
    14501.5020    15294.0000     2100.0000    19639.1992
    14508.7607    17516.0000     2200.0000    19661.6660
    14516.0195    19495.0000     2285.0000    19684.1309
    14523.2773    21377.0000     2364.0000    19706.5938
    14530.5352    20651.0000     2339.0000    19729.0566
    14537.7939    21579.0000     2379.0000    19751.5234
    14545.0527    20125.0000     2324.0000    19773.9883
    14552.3271    18222.0000     2245.0000    19796.5039
    14559.6162    19757.0000     2312.0000    19819.0625
    14566.8906    22679.0000     2437.0000    19841.5781
    14574.1641    18806.0000     2279.0000    19864.0879
    14581.4531    22724.0000     2440.0000    19886.6484
    14588.7422    21491.0000     2395.0000    19909.2090
    14596.0459    20238.0000     2344.0000    19931.8125
    14603.3496    21488.0000     2402.0000    19954.4180
    14610.6396    19340.0000     2318.0000    19976.9805
    14617.9443    21158.0000     2391.0000    19999.5898
    14625.2637    20791.0000     2379.0000    20022.2422
    14632.5840    17221.0000     2234.0000    20044.8984
    14639.8887    21694.0000     2428.0000    20067.5078
    14647.2080    21116.0000     2398.0000    20090.1602
    14654.5430    18784.0000     2311.0000    20112.8613
    14661.8633    19797.0000     2356.0000    20135.5176
    14669.1836    18184.0000     2292.0000    20158.1758
    14676.5176    20181.0000     2374.0000    20180.8730
    14683.8682    21815.0000     2443.0000    20203.6230
    14691.2041    18476.0000     2314.0000    20226.3281
    14698.5381    22013.0000     2458.0000    20249.0273
    14705.8887    16297.0000     2222.0000    20271.7773
    14713.2549    19275.0000     2348.0000    20294.5762
    14720.6201    25017.0000     2585.0000    20317.3711
    14727.9717    21863.0000     2465.0000    20340.1250
    14735.3369    21618.0000     2454.0000    20362.9199
    14742.7031    20762.0000     2428.0000    20385.7188
    14750.0684    21459.0000     2454.0000    20408.5137
    14757.4492    20470.0000     2418.0000    20431.3574
    14764.8301    20729.0000     2432.0000    20454.2012
    14772.2109    20075.0000     2408.0000    20477.0449
    14779.5928    18922.0000     2364.0000    20499.8926
    14786.9893    17746.0000     2312.0000    20522.7832
    14794.3848    20250.0000     2426.0000    20545.6738
    14801.7812    24707.0000     2601.0000    20568.5645
    14809.1777    19514.0000     2402.0000    20591.4570
    14816.5742    19133.0000     2385.0000    20614.3496
    14823.9854    18729.0000     2371.0000    20637.2871
    14831.3975    17266.0000     2311.0000    20660.2266
    14838.8096    22098.0000     2516.0000    20683.1680
    14846.2363    22389.0000     2526.0000    20706.1543
    14853.6631    22122.0000     2524.0000    20729.1406
    14861.0898    24446.0000     2614.0000    20752.1250
    14868.5166    18637.0000     2387.0000    20775.1113
    14875.9434    17734.0000     2347.0000    20798.0977
    14883.3867    19896.0000     2442.0000    20821.1348
    14890.8301    22305.0000     2544.0000    20844.1719
    14898.2715    22918.0000     2572.0000    20867.2031
    14905.7285    20051.0000     2454.0000    20890.2832
    14913.1855    20310.0000     2474.0000    20913.3613
    14920.6289    21082.0000     2509.0000    20936.3984
    14928.0869    23492.0000     2604.0000    20959.4824
    14935.5586    24270.0000     2638.0000    20982.6074
    14943.0322    21576.0000     2535.0000    21005.7383
    14950.5049    20734.0000     2504.0000    21028.8652
    14957.9785    22177.0000     2566.0000    21051.9961
    14965.4512    17603.0000     2378.0000    21075.1250
    14972.9395    16841.0000     2344.0000    21098.3008
    14980.4268    21638.0000     2555.0000    21031.5684
    14987.9150    20780.0000     2519.0000    20964.8262
    14995.4043    19590.0000     2478.0000    20898.0742
    15002.8926    22382.0000     2592.0000    20831.3320
    15010.3965    24579.0000     2682.0000    20764.4512
    15017.8994    20757.0000     2532.0000    20697.5781
    15025.4180    21540.0000     2563.0000    20630.5664
    15032.9365    20015.0000     2509.0000    20563.5547
    15040.4561    22771.0000     2621.0000    20496.5352
    15047.9746    23665.0000     2666.0000    20429.5234
    15055.4932    21292.0000     2569.0000    20362.5117
    15063.0273    19768.0000     2509.0000    20295.3594
    15070.5615    20132.0000     2528.0000    20228.2090
    15078.0957    20115.0000     2531.0000    20161.0586
    15085.6299    18842.0000     2481.0000    20093.9062
    15093.1641    17816.0000     2440.0000    20026.7559
    15100.7139    18263.0000     2459.0000    20048.8438
    15108.2627    21596.0000     2609.0000    20070.9277
    15115.8135    20541.0000     2563.0000    20093.0176
    15123.3779    21730.0000     2617.0000    20115.1484
    15130.9424    19105.0000     2510.0000    20137.2773
    15138.5078    19798.0000     2544.0000    20159.4121
    15146.0723    18407.0000     2488.0000    20181.5410
    15153.6523    20765.0000     2587.0000    20203.7168
    15161.2324    22998.0000     2688.0000    20225.8926
    15168.8135    19507.0000     2542.0000    20248.0723
    15176.3926    18290.0000     2498.0000    20270.2441
    15183.9736    18830.0000     2521.0000    20292.4238
    15191.5684    22552.0000     2681.0000    20314.6426
    15199.1641    20183.0000     2587.0000    20336.8633
    15206.7588    20497.0000     2604.0000    20359.0820
    15214.3701    22595.0000     2690.0000    20381.3496
    15221.9805    19032.0000     2550.0000    20403.6152
    15229.5918    21432.0000     2650.0000    20425.8809
    15237.2021    24839.0000     2798.0000    20448.1465
    15244.8135    18963.0000     2554.0000    20470.4141
    15252.4395    19075.0000     2563.0000    20492.7246
    15260.0654    24779.0000     2803.0000    20515.0332
    15267.6914    21947.0000     2692.0000    20537.3438
    15275.3320    23883.0000     2770.0000    20606.5762
    15282.9736    20927.0000     2658.0000    20629.7559
    15290.6152    21229.0000     2670.0000    20652.9570
    15298.2568    20114.0000     2632.0000    20676.1816
    15305.8975    16884.0000     2490.0000    20699.4258
    15313.5537    19372.0000     2604.0000    20722.7422
    15321.2109    21029.0000     2678.0000    20746.0879
    15328.8682    20267.0000     2650.0000    20769.4609
    15336.5400    21704.0000     2710.0000    20792.9043
    15344.2119    17552.0000     2541.0000    20816.3770
    15351.8838    19831.0000     2640.0000    20839.8770
    15359.5557    19455.0000     2633.0000    20863.4102
    15367.2275    19301.0000     2625.0000    20886.9746
    15374.9150    26017.0000     2907.0000    20910.6191
    15382.6025    26236.0000     2920.0000    20934.3008
    15390.2900    21905.0000     2750.0000    20958.0176
    15397.9922    21391.0000     2727.0000    20981.8164
    15405.6953    24947.0000     2883.0000    21005.6582
    15413.3975    22469.0000     2781.0000    21029.5352
    15421.0996    18391.0000     2616.0000    21053.4570
    15428.8027    22415.0000     2788.0000    21077.4277
    15436.5215    22109.0000     2780.0000    21101.4902
    15444.2393    20866.0000     2732.0000    21125.6016
    15451.9570    17981.0000     2611.0000    21149.7617
    15459.6895    20956.0000     2740.0000    21174.0195
    15467.4229    20530.0000     2731.0000    21198.3379
    15475.1562    23159.0000     2841.0000    21222.7148
    15482.8896    20405.0000     2736.0000    21247.1484
    15490.6221    19539.0000     2697.0000    21271.6484
    15498.3711    15200.0000     2505.0000    21297.5137
    15506.1201    17657.0000     2623.0000    21322.2227
    15513.8691    19758.0000     2721.0000    21347.0039
    15521.6328    20015.0000     2731.0000    21371.9121
    15529.3965    21948.0000     2824.0000    21396.9004
    15537.1602    20348.0000     2755.0000    21421.9746
    15544.9395    22057.0000     2833.0000    21447.1914
    15552.7031    24167.0000     2931.0000    21472.4531
    15560.4668    20027.0000     2756.0000    21497.8125
    15568.2461    19994.0000     2759.0000    21523.3301
    15576.0410    19357.0000     2731.0000    21549.0098
    15583.8359    19773.0000     2759.0000    21574.8086
    15591.6299    22629.0000     2881.0000    21600.7285
    15599.4238    19858.0000     2773.0000    21626.7812
    15607.2188    22128.0000     2870.0000    21652.9746
    15615.0283    23767.0000     2943.0000    21679.3633
    15622.8389    25254.0000     3009.0000    21705.9160
    15630.6484    24234.0000     2973.0000    21732.6270
    15638.4580    18124.0000     2715.0000    21759.5176
    15646.2676    20953.0000     2844.0000    21786.5938
    15654.0938    22941.0000     2928.0000    21813.9258
    15661.9336    23618.0000     2962.0000    21841.5195
    15669.7588    22087.0000     2908.0000    21869.2871
    15677.5840    22836.0000     2940.0000    21897.2949
    15685.4238    22102.0000     2914.0000    21925.6152
    15693.2656    22045.0000     2916.0000    21954.2148
    15701.1211    23148.0000     2963.0000    21983.1602
    15708.9766    23919.0000     3006.0000    22012.4238
    15716.8320    19339.0000     2809.0000    22042.0273
    15724.6885    21352.0000     2908.0000    22071.9980
    15732.5439    21688.0000     2922.0000    22102.3574
    15740.4141    20118.0000     2859.0000    22133.1953
    15748.2861    21942.0000     2943.0000    22164.5000
    15756.1572    23050.0000     2996.0000    22196.2930
    15764.0273    22854.0000     2993.0000    22228.6133
    15771.9141    24000.0000     3040.0000    22261.5820
    15779.8008    23050.0000     3012.0000    22295.1777
    15787.6865    26117.0000     3138.0000    22329.4531
    15795.5879    24760.0000     3088.0000    22364.5410
    15803.4902    25719.0000     3132.0000    22400.4473
    15811.3926    21042.0000     2941.0000    22437.2461
    15819.2939    26756.0000     3186.0000    22475.0117
    15827.1953    21126.0000     2955.0000    22513.8457
    15835.1123    17128.0000     2775.0000    22553.9395
    15843.0293    21792.0000     2994.0000    22593.0957
    15850.9463    21933.0000     3000.0000    22633.6895
    15858.8789    21971.0000     3007.0000    22675.9629
    15866.8115    18124.0000     2841.0000    22720.0176
    15874.7441    18479.0000     2863.0000    22766.0547
    15882.6768    20154.0000     2944.0000    22857.6680
    15890.6240    24093.0000     3114.0000    22909.2715
    15898.5703    22397.0000     3053.0000    22963.6973
    15906.5186    21745.0000     3024.0000    23021.3359
    15914.4658    25833.0000     3209.0000    23082.5938
    15922.4141    28400.0000     3312.0000    23147.9863
    15930.3770    23347.0000     3110.0000    23218.2324
    15938.3398    22272.0000     3069.0000    23293.9238
    15946.3184    20315.0000     2984.0000    23376.0664
    15954.2959    26408.0000     3255.0000    23465.5312
    15962.2744    22920.0000     3108.0000    23563.5684
    15970.2529    19582.0000     2973.0000    23671.6777
    15978.2314    23755.0000     3156.0000    23791.7109
    15986.2246    24815.0000     3206.0000    23926.2246
    15994.2178    24578.0000     3202.0000    24077.9062
    16002.2109    21388.0000     3071.0000    24250.4336
    16010.2207    22422.0000     3116.0000    24449.0000
    16018.2285    23821.0000     3188.0000    24679.6934
    16026.2383    21125.0000     3070.0000    24952.5234
    16034.2480    24917.0000     3246.0000    25286.7188
    16042.2568    29901.0000     3449.0000    25731.5547
    16050.2803    27628.0000     3364.0000    26433.5430
    16058.3047    29038.0000     3427.0000    27814.6250
    16066.3291    32240.0000     3559.0000    30992.1289
    16074.3682    41687.0000     3907.0000    38577.9727
    16082.4082    53513.0000     4318.0000    55747.7070
    16090.4473    88459.0000     5322.0000    91064.9141
    16098.5020   155493.0000     6862.0000   155945.7344
    16106.5576   264652.0000     8824.0000   260734.5469
    16114.6123   416266.0000    11004.0000   408208.6250
    16122.6670   605686.0000    13259.0000   586722.5625
    16130.7217   783405.0000    15097.0000   767976.2500
    16138.7773   917349.0000    16366.0000   913641.3750
    16146.8477   953896.0000    16685.0000   990101.1875
    16154.9326   943188.0000    16613.0000   982660.8750
    16163.0029   877425.0000    16070.0000   901087.5625
    16171.0723   769618.0000    15038.0000   771859.0625
    16179.1582   636861.0000    13699.0000   625191.3125
    16187.2588   494880.0000    12085.0000   485508.0625
    16195.3594   368678.0000    10497.0000   366877.0938
    16203.4453   286932.0000     9313.0000   273590.4688
    16211.5459   206628.0000     7964.0000   203461.4844
    16219.6621   160006.0000     7081.0000   152270.5469
    16227.7783   123078.0000     6293.0000   115556.5469
    16235.8945    90014.0000     5492.0000    89407.4844
    16244.0098    77573.0000     5162.0000    70829.6562
    16252.1260    60874.0000     4678.0000    57631.1797
    16260.2422    51820.0000     4395.0000    48249.7031
    16268.3740    43751.0000     4119.0000    41564.0000
    16276.5215    39500.0000     3973.0000    36798.5938
    16284.6514    39420.0000     3985.0000    33418.0938
    16292.7832    32175.0000     3708.0000    31031.2363
    16300.9297    35229.0000     3834.0000    29398.6230
    16309.0918    36351.0000     3876.0000    28417.2070
    16317.2539    35451.0000     3856.0000    28121.5703
    16325.4014    38455.0000     3976.0000    28672.6602
    16333.5635    37063.0000     3923.0000    30308.8477
    16341.7402    35090.0000     3855.0000    33206.8789
    16349.9023    40032.0000     4055.0000    37262.0039
    16358.0635    40411.0000     4068.0000    41963.0781
    16366.2568    44474.0000     4214.0000    46413.6719
    16374.4492    47171.0000     4323.0000    49544.4141
    16382.6270    43590.0000     4205.0000    50610.8359
    16390.8184    48563.0000     4378.0000    49489.7266
    16399.0117    50189.0000     4449.0000    46647.9688
    16407.2051    41213.0000     4133.0000    42877.2656
    16415.4141    37441.0000     3999.0000    38947.2656
    16423.6211    41411.0000     4154.0000    35409.1406
    16431.8281    40224.0000     4118.0000    32515.3789
    16440.0508    33780.0000     3872.0000    30293.2539
    16448.2754    34196.0000     3902.0000    28659.7441
    16456.4980    26155.0000     3574.0000    27489.2461
    16464.7363    24277.0000     3499.0000    26661.1387
    16472.9609    30203.0000     3763.0000    26082.8984
    16481.1836    27324.0000     3643.0000    25681.8945
    16489.4375    27275.0000     3641.0000    25406.0234
    16497.6914    29094.0000     3730.0000    25220.5020
    16505.9297    25884.0000     3601.0000    25099.7598
    16514.1836    22182.0000     3438.0000    25025.3027
    16522.4375    26621.0000     3646.0000    24984.7695
    16530.6914    22170.0000     3451.0000    24969.3535
    16538.9609    23638.0000     3522.0000    24972.9902
    16547.2305    23874.0000     3539.0000    24991.5566
    16555.4980    26842.0000     3675.0000    25022.2656
    16563.7832    25056.0000     3598.0000    25063.4648
    16572.0684    29286.0000     3791.0000    25114.0996
    16580.3535    26536.0000     3675.0000    25173.7637
    16588.6543    27036.0000     3703.0000    25242.6680
    16596.9531    23907.0000     3573.0000    25321.1953
    16605.2520    19796.0000     3393.0000    25410.2734
    16613.5527    20227.0000     3419.0000    25511.2637
    16621.8535    18468.0000     3343.0000    25625.9648
    16630.1523    24056.0000     3606.0000    25729.5938
    16638.4668    24558.0000     3629.0000    25852.6875
    16646.7988    26096.0000     3703.0000    25999.5059
    16655.1289    19618.0000     3417.0000    26175.3184
    16663.4590    19329.0000     3410.0000    26388.3730
    16671.7891    27152.0000     3768.0000    26653.6641
    16680.1191    31225.0000     3947.0000    27007.6074
    16688.4492    25865.0000     3726.0000    27555.7891
    16696.7969    26154.0000     3739.0000    28612.5098
    16705.1426    26145.0000     3752.0000    31028.4297
    16713.4883    32217.0000     4008.0000    36850.6172
    16721.8496    40648.0000     4345.0000    50344.4531
    16730.2109    65296.0000     5201.0000    78873.5312
    16738.5703   120364.0000     6732.0000   132700.6875
    16746.9473   214265.0000     8740.0000   222500.9844
    16755.3242   356922.0000    11170.0000   353064.4688
    16763.7012   524284.0000    13462.0000   516746.6562
    16772.0918   711323.0000    15675.0000   690141.7500
    16780.4688   849702.0000    17183.0000   837204.2500
    16788.8457   950782.0000    18175.0000   923856.5625
    16797.2520   942807.0000    18089.0000   931775.3125
    16805.6582   852921.0000    17254.0000   865425.8125
    16814.0508   747038.0000    16169.0000   748168.5625
    16822.4570   609284.0000    14606.0000   609221.5625
    16830.8789   468034.0000    12848.0000   473684.4375
    16839.2871   336181.0000    10981.0000   357236.4688
    16847.6934   251888.0000     9569.0000   265040.3438
    16856.1309   189949.0000     8388.0000   195713.5000
    16864.5684   145303.0000     7451.0000   145538.7969
    16872.9922   109629.0000     6593.0000   109945.1562
    16881.4297    86986.0000     5975.0000    84832.7344
    16889.8672    78029.0000     5733.0000    67204.0234
    16898.3047    59366.0000     5143.0000    54831.9375
    16906.7578    48604.0000     4780.0000    46125.7539
    16915.2090    44070.0000     4621.0000    40002.0977
    16923.6641    42420.0000     4567.0000    35681.0625
    16932.1328    35889.0000     4313.0000    32619.7148
    16940.5996    31593.0000     4154.0000    30446.6953
    16949.0684    28168.0000     4008.0000    28895.8281
    16957.5527    32720.0000     4207.0000    27780.7930
    16966.0371    32150.0000     4192.0000    26974.8594
    16974.5195    28017.0000     4024.0000    26387.1992
    16983.0039    24186.0000     3861.0000    25953.8887
    16991.4863    25499.0000     3928.0000    25630.5215
    16999.9863    30671.0000     4153.0000    25385.2129
    17008.4844    28135.0000     4059.0000    25196.5898
    17016.9844    30790.0000     4173.0000    25048.9219
    17025.4980    21210.0000     3753.0000    24931.0137
    17034.0117    27147.0000     4031.0000    24835.2246
    17042.5254    26968.0000     4030.0000    24755.9199
    17051.0410    23015.0000     3860.0000    24689.0371
    17059.5703    25038.0000     3952.0000    24631.5879
    17068.0996    18092.0000     3640.0000    24581.5488
    17076.6289    28285.0000     4111.0000    24537.3555
    17085.1738    22444.0000     3856.0000    24497.7715
    17093.7188    21542.0000     3821.0000    24462.0098
    17102.2637    25305.0000     4002.0000    24429.4062
    17110.8086    28314.0000     4143.0000    24399.4453
    17119.3691    22053.0000     3861.0000    24371.6816
    17127.9297    20277.0000     3791.0000    24345.8535
    17136.4883    21710.0000     3860.0000    24321.7148
    17145.0645    23206.0000     3937.0000    24299.0039
    17153.6387    17628.0000     3678.0000    24277.6035
    17162.2148    21947.0000     3894.0000    24257.3672
    17170.7910    28654.0000     4205.0000    24238.1699
    17179.3809    23352.0000     3968.0000    24219.8809
    17187.9727    30397.0000     4297.0000    24202.4434
    17196.5625    26057.0000     4107.0000    24185.7812
    17205.1699    21567.0000     3908.0000    24169.7930
    17213.7754    23980.0000     4028.0000    24154.4551
    17222.3828    21877.0000     3938.0000    24139.7051
    17230.9883    22894.0000     3994.0000    24125.5000
    17239.5938    16893.0000     3711.0000    24111.8008
    17248.2148    26428.0000     4164.0000    24122.9453
    17256.8516    24213.0000     4071.0000    24134.5430
    17265.4746    24224.0000     4087.0000    24146.5195
    17274.0957    28135.0000     4264.0000    24158.8613
    17282.7305    29630.0000     4338.0000    24171.5664
    17291.3828    30282.0000     4367.0000    24184.6172
    17300.0352    27996.0000     4283.0000    24197.9688
    17308.6719    24008.0000     4111.0000    24211.5723
    17317.3242    23636.0000     4095.0000    24225.4629
    17325.9922    24054.0000     4122.0000    24239.6211
    17334.6602    19103.0000     3895.0000    24254.0098
    17343.3262    20048.0000     3949.0000    24268.6074
    17351.9941    28438.0000     4346.0000    24283.4121
    17360.6621    29671.0000     4409.0000    24298.4062
    17369.3438    25157.0000     4208.0000    24313.6016
    17378.0430    21755.0000     4058.0000    24328.9961
    17386.7246    23355.0000     4149.0000    24344.5215
    17395.4082    23342.0000     4150.0000    24360.1953
    17404.1055    26090.0000     4285.0000    24376.0371
    17412.8184    28328.0000     4386.0000    24392.0410
    17421.5312    19637.0000     3998.0000    24385.3730
    17430.2285    25260.0000     4272.0000    24401.9062
    17438.9434    24510.0000     4239.0000    24418.5762
    17447.6719    30895.0000     4534.0000    24435.3789
    17456.4004    24500.0000     4256.0000    24452.2773
    17465.1289    29931.0000     4509.0000    24469.2656
    17473.8574    23327.0000     4218.0000    24486.3418
    17482.5859    20387.0000     4086.0000    24503.5000
    17491.3301    25957.0000     4350.0000    24520.7676
    17500.0742    27300.0000     4427.0000    24538.1094
    17508.8184    26977.0000     4414.0000    24555.5234
    17517.5781    24759.0000     4321.0000    24573.0332
    17526.3379    28194.0000     4486.0000    24590.6094
    17535.0957    26325.0000     4410.0000    24608.2422
    17543.8711    20914.0000     4157.0000    24625.9688
    17552.6465    20870.0000     4171.0000    24643.7520
    17561.4199    22759.0000     4263.0000    24680.1934
    17570.2090    27705.0000     4501.0000    24698.4395
    17578.9844    21246.0000     4215.0000    24716.7168
    17587.7734    23465.0000     4316.0000    24735.0781
    17596.5781    21905.0000     4257.0000    24753.5254
    17605.3691    21416.0000     4243.0000    24771.9980
    17614.1738    23464.0000     4342.0000    24790.5508
    17622.9785    27732.0000     4556.0000    24809.1523
    17631.7852    24658.0000     4416.0000    24827.8086
    17640.6055    30977.0000     4712.0000    24846.5391
    17649.4258    20565.0000     4239.0000    24865.3164
    17658.2461    24783.0000     4450.0000    24884.1406
    17667.0820    31028.0000     4734.0000    24902.4375
    17675.9180    20330.0000     4255.0000    24921.3906
    17684.7539    26274.0000     4539.0000    24940.3906
    17693.5898    21813.0000     4345.0000    24959.4316
    17702.4258    22798.0000     4395.0000    24978.5176
    17711.2754    24732.0000     4495.0000    24997.6738
    17720.1426    27961.0000     4646.0000    25016.9082
    17729.0098    25119.0000     4533.0000    25036.1875
    17737.8750    22366.0000     4404.0000    25055.5020
    17746.7422    25722.0000     4579.0000    25074.8633
    17755.6094    26223.0000     4604.0000    25094.2656
    17764.4902    25134.0000     4563.0000    25113.7402
    17773.3730    21731.0000     4410.0000    25133.2617
    17782.2539    26523.0000     4646.0000    25152.8203
    17791.1504    28900.0000     4756.0000    25172.4551
    17800.0469    26105.0000     4646.0000    25192.1348
    17808.9453    22893.0000     4496.0000    25211.8633
    17817.8574    21060.0000     4416.0000    25231.6660
    17826.7695    24579.0000     4594.0000    25251.5137
    17835.6816    21911.0000     4476.0000    25271.4082
    17844.5957    23934.0000     4583.0000    25291.3555
    17853.5078    23652.0000     4578.0000    25311.3438
    17862.4355    26179.0000     4699.0000    25331.4199
    17871.3789    27724.0000     4780.0000    25351.5820
    17880.3047    22128.0000     4533.0000    25371.7578
    17889.2324    26906.0000     4761.0000    25391.9902
    17898.1914    27948.0000     4810.0000    25412.3516
    17907.1504    22160.0000     4554.0000    25432.7715
    17916.0918    25134.0000     4706.0000    25453.2129
    17925.0508    30887.0000     4971.0000    25473.7578
    17934.0098    30542.0000     4974.0000    25494.3691
    17942.9668    24180.0000     4681.0000    25515.0449
    17951.9414    31721.0000     5037.0000    25535.8301
    17960.9141    22622.0000     4625.0000    25556.6914
    17969.9043    25985.0000     4786.0000    25577.6719
    17978.8926    19429.0000     4486.0000    25598.7305
    17987.8809    20260.0000     4529.0000    25596.5508
    17996.8848    21855.0000     4617.0000    25594.4609
    18005.8750    25403.0000     4805.0000    25592.4707
    18014.8633    21596.0000     4623.0000    25590.5859
    18023.8828    24330.0000     4757.0000    25588.8066
    18032.9023    29610.0000     5020.0000    25587.1445
    18041.9062    29933.0000     5045.0000    25585.6113
    18050.9258    23984.0000     4769.0000    25584.2070
    18059.9609    29283.0000     5026.0000    25582.9434
    18068.9961    32539.0000     5182.0000    25581.8340
    18078.0312    31521.0000     5147.0000    25580.8867
    18087.0664    24207.0000     4817.0000    25580.1172
    18096.1016    25721.0000     4899.0000    25557.7656
    18105.1504    30976.0000     5143.0000    25557.6875
    18114.2012    22970.0000     4786.0000    25557.8242
    18123.2520    29492.0000     5095.0000    25558.1914
    18132.3184    29508.0000     5105.0000    25558.8105
    18141.3828    20759.0000     4698.0000    25559.7051
    18150.4629    27235.0000     5012.0000    25560.9023
    18159.5430    31654.0000     5232.0000    25562.4238
    18168.6250    28726.0000     5100.0000    25564.3047
    18177.7051    31489.0000     5245.0000    25566.5801
    18186.7871    29198.0000     5142.0000    25569.2871
    18195.8828    26200.0000     5012.0000    25572.4746
    18204.9805    28840.0000     5145.0000    25576.1895
    18214.0762    27369.0000     5086.0000    25580.4863
    18223.1875    24931.0000     4973.0000    25585.4395
    18232.2988    22848.0000     4890.0000    25591.1133
    18241.4102    28309.0000     5151.0000    25597.5957
    18250.5371    25307.0000     5020.0000    25604.9941
    18259.6641    21744.0000     4856.0000    25613.4082
    18268.7910    23360.0000     4946.0000    25622.9707
    18277.9316    24365.0000     4996.0000    25633.8496
    18287.0742    23397.0000     4967.0000    25646.2109
    18296.2168    23190.0000     4959.0000    25660.2617
    18305.3594    28912.0000     5250.0000    25676.2500
    18314.5000    24136.0000     5025.0000    25694.4648
    18323.6582    22669.0000     4963.0000    25715.3066
    18332.8301    28533.0000     5246.0000    25739.2051
    18342.0039    32206.0000     5433.0000    25766.6562
    18351.1758    26661.0000     5178.0000    25798.2871
    18360.3496    25498.0000     5142.0000    25834.8965
    18369.5215    17116.0000     4724.0000    25877.4473
    18378.7090    21887.0000     4977.0000    25927.2656
    18387.8984    28610.0000     5311.0000    25985.8750
    18397.0859    26520.0000     5223.0000    26055.3047
    18406.2891    29997.0000     5388.0000    26138.5410
    18415.4922    25966.0000     5218.0000    26239.9824
    18424.6953    22351.0000     5043.0000    26368.9707
    18433.9141    31080.0000     5469.0000    26551.1152
    18443.1328    34900.0000     5652.0000    26862.2129
    18452.3516    31330.0000     5502.0000    27521.7539
    18461.5859    24352.0000     5175.0000    29103.5449
    18470.8203    34676.0000     5675.0000    32900.2266
    18480.0547    33829.0000     5638.0000    41391.3125
    18489.2871    44533.0000     6121.0000    58483.7617
    18498.5215    74937.0000     7278.0000    88965.8359
    18507.7695   133788.0000     9126.0000   136677.1562
    18517.0352   209145.0000    11045.0000   201464.0469
    18526.2988   290103.0000    12838.0000   276288.5938
    18535.5645   369576.0000    14359.0000   347502.2812
    18544.8301   415019.0000    15212.0000   398641.3438
    18554.0938   414578.0000    15199.0000   417378.7500
    18563.3730   381119.0000    14629.0000   400970.7188
    18572.6543   338885.0000    13869.0000   356551.5312
    18581.9336   296538.0000    13057.0000   296943.8125
    18591.2285   242320.0000    11912.0000   234867.6562
    18600.5234   174154.0000    10336.0000   179460.2500
    18609.8184   137004.0000     9342.0000   134885.9844
    18619.1289    97450.0000     8171.0000   101464.0000
    18628.4395    82877.0000     7701.0000    77611.9297
    18637.7500    70974.0000     7297.0000    61069.2969
    18647.0762    53141.0000     6622.0000    49751.7539
    18656.4023    43154.0000     6235.0000    42073.5742
    18665.7266    32652.0000     5775.0000    36872.7500
    18675.0684    32625.0000     5784.0000    33339.3906
    18684.4102    33575.0000     5839.0000    30937.8438
    18693.7520    35123.0000     5920.0000    29299.2910
    18703.0938    30588.0000     5723.0000    28175.7363
    18712.4336    23538.0000     5396.0000    27400.5684
    18721.7891    16850.0000     5056.0000    26860.6152
    18731.1621    25493.0000     5504.0000    26545.0391
    18740.5332    26243.0000     5551.0000    26339.5508
    18749.9062    30279.0000     5754.0000    26209.3652
    18759.2773    32093.0000     5850.0000    26131.0840
    18768.6484    26106.0000     5578.0000    26088.7734
    18778.0371    30750.0000     5800.0000    26071.6094
    18787.4238    30324.0000     5801.0000    26072.2793
    18796.8105    27823.0000     5685.0000    26085.6895
    18806.2129    25529.0000     5585.0000    26108.3770
    18815.6152    26942.0000     5665.0000    26137.8848
    18825.0176    28642.0000     5757.0000    26172.4961
    18834.4355    26270.0000     5646.0000    26211.0723
    18843.8516    22049.0000     5457.0000    26252.6758
    18853.2695    20049.0000     5358.0000    26296.6934
    18862.7031    20898.0000     5413.0000    26342.7363
    18872.1367    31507.0000     5941.0000    26390.3770
    18881.5684    23377.0000     5560.0000    26439.3477
    18891.0020    32405.0000     6005.0000    26489.4590
    18900.4512    24506.0000     5630.0000    26540.6289
    18909.9141    37462.0000     6248.0000    26592.7188
    18919.3633    22360.0000     5555.0000    26645.4746
    18928.8125    21811.0000     5530.0000    26698.8848
    18938.2754    29534.0000     5919.0000    26752.9512
    18947.7539    24800.0000     5693.0000    26807.6289
    18957.2324    21571.0000     5552.0000    26862.7734
    18966.7129    35937.0000     6242.0000    26918.3516
